AF3,F7,F3,FC5,T7,P7,O1,O2,P8,T8,FC6,F4,F8,AF4,eyeDetection
0.7302561960220264,-0.0119769702185946,1.1594693724152438,1.2139665082779594,0.49436852935672193,-1.8110387966566956,1.1361334174033468,1.3561522406603184,1.1443991560531668,0.35534173642703903,0.3644401715166906,0.06340675452414798,0.883421627613876,0.8379185182027801,0
0.6087147829608974,-0.16436019897227816,1.3734861577858986,1.2380738877699295,0.019596530345424187,-1.7834039052202229,1.1608386543270321,1.2450655778707302,0.5193753544981812,-0.23307645409010047,0.2194532023536548,0.01326842373980177,0.792015828845358,0.5857769463085202,0
0.6896545092293697,-0.09659759182584207,1.4443618464475847,1.6015753550114233,-0.2770636834095086,-1.9470874929591897,1.1361334174033468,0.7753739114156063,0.348712827123188,-0.463652538923784,0.1782591331207239,0.13910580296322475,0.6703392785366299,0.7184422041359408,0
0.7168101828634372,0.07264365138865286,1.492075545350546,1.5774679755194532,0.10865242297360664,-2.0018258356121437,1.1608386543270321,0.802875949290717,0.8889594641055681,0.2016243465379167,0.34384313690024354,0.4163412790647566,0.7768804530752664,0.9041218437462853,0
0.5140653962169708,-0.16436019897227816,0.9218273574907639,1.4559856906286102,0.22720085147217453,-1.7563004540036933,0.9655722624877423,0.05600688150614644,0.0644599812032724,0.07385924325342838,0.3022452042434146,0.08896747217887854,0.6552039027665113,0.7316311478965692,0
0.4734637094243141,-0.2830273988043089,0.7555242710231127,1.3831908584372037,0.10865242297360664,-1.8923491503062357,0.7950111075721379,0.0010028057559249147,0.6047066181856525,-0.23307645409010047,-0.04951983793207174,-0.465995032286832,0.5637981039979933,0.43992274472044746,0
0.6356068092781237,-0.09659759182584207,0.6605601130123324,0.9714746322117696,0.13814495884399208,-1.9741909441757193,0.673385325793887,-0.05454052563886912,0.2351225085782151,-0.053905860031014545,-0.25670177436838354,-0.6169015769023833,0.4723923052294754,0.49293712650334787,0
0.6490528224367129,0.03892762246701509,0.565595955001552,0.8017775883369862,0.19770831560178911,-1.9199840417426604,0.8681766169231383,-0.41368478494897754,-0.7594854025842583,-0.07985814663569396,-0.0083257686991041,-0.26396705236173007,0.6246363791523709,0.7316311478965692,0
0.6490528224367129,0.05578563692784149,0.5892211845554616,0.9227871795123331,0.13814495884399208,-2.0018258356121437,0.9413421262741172,-0.38618274707386674,-0.3899012929768209,-0.1307645549755757,0.4266351387899666,-0.062430624699275,0.929124526998135,0.8244709677017416,0
0.6490528224367129,0.03892762246701509,0.3992928685339009,0.9714746322117696,0.04908906621580962,-2.164977983131216,0.6976154620075339,0.0010028057559249147,0.26338156343571667,-0.1307645549755757,0.34384313690024354,-0.31459693540867845,0.7614483052312175,0.5459515082862482,0
0.4057063489976138,-0.23245335542185974,-0.21820577843370034,0.632080544462203,-0.12844443402352915,-2.056032738045203,0.624449952656555,-0.02703848776375836,-0.30457002928934956,-0.3867938439792228,-0.19450680709510756,-0.8439987222196137,0.21360705676794337,0.24105416134949795,0
0.17606953603394512,-0.5375503622323724,-0.7648287367396153,0.09888203334592595,-0.3360487551502795,-1.8923491503062357,0.7950111075721379,-0.30313737780396194,-0.7024131937542886,-0.48910574309374755,-0.4844807454211425,-1.1463033637133633,0.0005247076906703174,0.214417667087831,0
0.17606953603394512,-0.36797856971471693,-0.5749004207180547,0.0015071279470532594,-0.18800779078132618,-1.8923491503062357,0.8681766169231383,0.05600688150614644,0.2351225085782151,-0.2844819448646981,-0.31889674164165954,-0.7682996737805369,0.12249803007335566,0.2542431051101029,0
0.2976109490950741,-0.11378615558981398,-0.1709553193258814,0.24399900401320007,-0.03938854139534668,-1.8110387966566956,0.7950111075721379,0.6923285421457015,0.8036282004180968,-0.30993514903466163,-0.1327157032456561,-0.23889788696960165,0.1679041573836844,0.3737194191769186,0
0.3247666227291416,-0.19840677719706143,-0.3845088649013515,0.24399900401320007,-0.2175003266517116,-1.8110387966566956,0.8681766169231383,0.6367852107508585,0.26338156343571667,-0.3353883532046252,-0.11171480520534774,-0.49106419767900505,0.12249803007335566,0.4531116884810759,0
0.2841649359364849,-0.3170739770291072,-0.3845088649013515,0.0743019601384598,0.019596530345424187,-1.7834039052202229,0.6002198164429082,-0.2756353399288512,-0.5034916115217939,-0.4122470481491864,-0.4016887435313827,-0.7176697907336332,0.25930995615220237,0.5327625645256198,0
0.3788143226803875,-0.19840677719706143,-0.31316993644448066,0.0015071279470532594,-0.009896005524961247,-1.7015621113507393,0.7223206989312407,-0.46922811634377154,-0.7306722486118405,-0.7196818279274311,-0.09111777058886392,-0.44043431463205673,0.4572569294593568,0.4531116884810759,0
0.33821263588773076,-0.13064417005064038,-0.21820577843370034,0.0501945806464896,0.19770831560178911,-1.7015621113507393,0.9171119900604704,-0.16508793278388467,0.29219471740813446,-0.4381993347538204,0.3022452042434146,-0.33966610080080684,0.5486627282278748,0.5195736207649913,0
0.6087147829608974,0.10669022961345118,-0.05190269196604915,0.4623835005874627,0.07915988710322121,-1.7563004540036933,0.8924067531367635,0.11155021290094047,0.6612247279007061,0.4576536355415638,0.6338170752262785,-0.23889788696960165,0.7768804530752664,1.010150607312086,0
0.7843038959732963,0.4795498435703849,0.09031192515250797,0.8258849678289565,-0.30655621927989407,-1.8381422478731768,0.7950111075721379,0.11155021290094047,0.17860439886311114,0.6882297203752473,0.5716221079530025,-0.23889788696960165,0.9745306543084906,1.0367871015737296,0
0.6627624829121673,0.3440246292775277,-0.004652232858230225,0.7048753766536096,-0.42510464777846196,-1.8110387966566956,0.7223206989312407,0.3051429893158608,0.6612247279007061,0.35534173642703903,0.2610511350104837,-0.3902959838477552,0.837718728229617,0.6124134405701636,0
0.5275114093755839,-0.06288156290420428,-0.19458054887979087,0.4623835005874627,-0.0989518981531437,-1.8381422478731768,0.673385325793887,0.7753739114156063,1.5993145293480755,0.5599655346560886,0.2610511350104837,-0.44043431463205673,0.6397717549224625,0.4531116884810759,0
0.4194160094730442,-0.06288156290420428,-0.31316993644448066,0.2926864567126794,0.10865242297360664,-1.8652456990897064,0.7223206989312407,1.2450655778707302,1.684091693920681,0.8159948236596902,0.2816481696269308,-0.465995032286832,0.5637981039979933,0.6387913280913969,0
0.27045527546103054,-0.07973957736503069,-0.6221508798258314,0.12298941283789615,-0.30655621927989407,-1.7563004540036933,0.6976154620075339,0.9964687257055884,0.43404409081065937,0.048406039083510204,-0.19450680709510756,-0.8439987222196137,0.2744453319223209,0.5063846770043628,0
0.18951554919255828,-0.3170739770291072,-0.8834181243042629,-0.04670763103688713,-0.7217648615333948,-1.8381422478731768,0.6491551895802619,0.08404817502582972,-0.674154138896787,-0.7451350320973946,-0.6504686126245234,-1.2470715775445684,-0.06031356746368024,0.01554908371688147,0
0.25700926230241733,0.05578563692784149,0.04306146604473118,0.36548128890408593,-0.12844443402352915,-1.9470874929591897,0.7950111075721379,0.028504843631035677,-0.07738939219930291,-0.5405112338683451,-0.25670177436838354,-0.667531459949287,0.15276878161356583,0.3338939811546467,0
0.12175818876583404,-0.3002159625682808,-0.21820577843370034,-0.07081501052885733,-0.6622015047755452,-1.9199840417426604,0.6002198164429082,-0.46922811634377154,-0.9013347759867832,-0.7196818279274311,-0.09111777058886392,-0.7933688391727101,0.15276878161356583,0.2012287233272025,0
0.14891386239990156,-0.21526479165788784,-0.05190269196604915,-0.04670763103688713,-0.6327089689051597,-2.0018258356121437,0.6491551895802619,-0.2206312641786787,0.03620092634572042,-0.3353883532046252,0.2610511350104837,-0.3902959838477552,0.487527680999594,0.4665592389820909,0
0.351658649046344,-0.04569299914023238,0.1857393229584729,0.26857907722070923,-0.3661195760376911,-1.9199840417426604,0.9171119900604704,0.5262378036058919,0.6329656730431541,-0.002999451691132791,0.34384313690024354,-0.1631988385305249,0.5486627282278748,0.5459515082862482,0
0.3247666227291416,-0.21526479165788784,-0.028277462412139687,0.0743019601384598,-0.30655621927989407,-1.7834039052202229,1.3066945723189514,0.9409253943107944,0.7748150464457294,0.07385924325342838,0.1988561677372077,-0.4153651492398836,0.38098650646095744,0.2808795993717699,0
0.17606953603394512,-0.4016945986363547,-0.4558477933582224,-0.14360984272026386,-0.5141605404066444,-1.6744586601342097,1.185068790540679,0.6648265042705908,0.8889594641055681,0.2016243465379167,0.2404541003939999,-0.5161333630711334,0.4572569294593568,0.1748508358059691,0
0.18951554919255828,-0.11378615558981398,-0.5035614922611837,-0.07081501052885733,-0.6622015047755452,-1.8381422478731768,0.42965866152732535,-0.05454052563886912,0.0644599812032724,0.25302983731251427,0.2610511350104837,-0.3902959838477552,0.6552039027665113,0.22786521758886946,0
0.12175818876583404,-0.06288156290420428,-0.5035614922611837,-0.07081501052885733,-0.6622015047755452,-2.164977983131216,0.21063723418444888,-0.4417260784687098,-0.8160035122993119,-0.3353883532046252,-0.1327157032456561,-0.5918324115102103,0.487527680999594,0.14821434154432567,0
-0.10787862419783469,-0.5544083766931838,-0.669864578728835,-0.1922972954197002,-0.6327089689051597,-2.083136189261732,0.6002198164429082,-0.358680709198805,-0.674154138896787,-1.1289294243854846,-0.6088706799676945,-0.9953968190977672,0.0005247076906703174,0.05537452173915338,0
-0.01322923745390809,-0.503503784007574,-0.5271867218150933,-0.14360984272026386,-0.5141605404066444,-1.9741909441757193,0.6976154620075339,-0.2206312641786787,-0.30457002928934956,-1.0520707294409235,-0.5672727473109023,-0.9196977706586904,-0.15142259415829495,0.13502539778369718,0
0.3247666227291416,0.03892762246701509,-0.19458054887979087,0.09888203334592595,-0.24699286252209704,-2.1107710806981568,0.7465508351448659,0.13905225077605124,0.12153219003319177,-0.3867938439792228,-0.1327157032456561,-0.5667632461180818,0.21360705676794337,0.24105416134949795,0
0.4194160094730442,0.03892762246701509,-0.2659194773366617,0.17120417182179354,-0.12844443402352915,-1.9199840417426604,1.014507635625096,0.5262378036058919,0.3775259810956058,-0.07985814663569396,-0.02892280331558792,-0.3902959838477552,0.3964186543049793,0.3869083629375471,0
0.10831217560724485,-0.36797856971471693,-0.5749004207180547,-0.04670763103688713,-0.5737238971644414,-1.8923491503062357,1.0387377718387212,0.22209762004595604,-0.07738939219930291,-0.463652538923784,-0.21550770513541592,-0.5161333630711334,0.13763340584347425,0.22786521758886946,0
-0.06754058472199519,-0.2830273988043089,-0.7648287367396153,0.026087201154519405,-0.5141605404066444,-2.137874531914686,0.673385325793887,0.4712337278556704,1.0590678923656953,-0.36134063980925923,0.1366612004639317,-0.6926006253414602,0.2744453319223209,0.04218557797852491,0
0.18951554919255828,-0.11378615558981398,-0.36088363534744206,-0.1922972954197002,-0.4545971836487948,-1.7291970027872121,1.185068790540679,0.3051429893158608,0.29219471740813446,0.6113710254306861,0.8409990116625903,-0.13812967313835178,0.8071512046154765,0.40009730669817556,0
0.36510466220495713,-0.3002159625682808,-0.07599116131510109,-0.09539508373632348,-0.7217648615333948,-1.9470874929591897,0.9413421262741172,0.3051429893158608,0.49111629964062914,0.4322004313716002,0.6750111444592461,-0.0874997900914481,0.8225833524595254,0.5063846770043628,0
0.4328620226316574,-0.16436019897227816,0.20936455251238237,0.0501945806464896,-0.2175003266517116,-1.8652456990897064,0.673385325793887,0.3326450271909716,0.32045377226568644,0.534512330486125,0.6132200406097946,0.3155730652335514,0.8528541039997355,0.6920643166147074,0
0.39226033583900066,0.14073680783823445,0.16165085360937884,0.09888203334592595,0.04908906621580962,-1.620251757701199,0.7707809713585126,0.028504843631035677,-0.049130337341750936,0.07385924325342838,0.44723217340645044,0.08896747217887854,0.7160421779208889,0.3737194191769186,0
0.09486616244863168,-0.028834984679421007,-0.21820577843370034,-0.11950246322829366,-0.03938854139534668,-1.292884582223265,0.9413421262741172,-0.1925899706589464,-0.10564844705685489,-0.5914176422082723,-0.15331273786213992,-0.8941370530039598,0.1679041573836844,-0.09047967984891929,0
-0.10787862419783469,-0.503503784007574,-0.2659194773366617,-0.16818991592773003,-0.2770636834095086,-1.3747263760927486,1.1361334174033468,-0.08204256351397989,-0.4469735018067403,-1.0780230160456028,-0.4016887435313827,-0.9196977706586904,-0.1211518426180578,-0.2761593194592403,0
0.17606953603394512,-0.07973957736503069,0.1857393229584729,0.17120417182179354,0.16821577973140367,-1.3205194736596895,1.37986008166993,0.36014706506608235,0.20686345372066312,-0.48910574309374755,0.1160641658474479,-0.3652268184555821,0.24417458038208378,0.3470829249152752,0
0.7302561960220264,0.547312450716821,0.7796127403721647,0.8745724205283928,-0.2770636834095086,-1.8381422478731768,0.6002198164429082,-0.1375858949087739,0.12153219003319177,0.12526473402807137,0.44723217340645044,0.11403663757105165,0.7311775536910075,0.665427822353064,0
0.9061089563512664,0.49673840733435676,0.7796127403721647,1.01968939119571,-0.30655621927989407,-1.5384099638317155,0.7465508351448659,0.028504843631035677,0.03620092634572042,0.09931244742339196,0.38503720613317444,-0.21382872157742855,0.7463129294610991,0.6256023843307921,0
0.6087147829608974,0.3099780510527294,0.565595955001552,0.632080544462203,-0.009896005524961247,-1.0478906408347095,1.2582342998916578,0.5537398414809537,0.5476344093556827,0.534512330486125,0.5716221079530025,-0.11306050774617867,0.792015828845358,0.7052532603753359,0
0.351658649046344,0.05578563692784149,0.20936455251238237,0.0015071279470532594,-0.42510464777846196,-0.966048846965226,1.3066945723189514,0.8859213185606218,1.1726582109107186,0.5859178212607226,0.7582070097728304,0.21480485140230154,0.7160421779208889,0.5063846770043628,0
0.2841649359364849,-0.0119769702185946,0.28070348096925324,0.5592857122707965,0.13814495884399208,-1.0478906408347095,1.2582342998916578,0.7198305800207633,0.43404409081065937,0.4576536355415638,0.44723217340645044,-0.13812967313835178,0.4572569294593568,0.47974818274271935,0
0.2976109490950741,0.022069608006203712,0.20936455251238237,0.34090121569657683,0.16821577973140367,-0.966048846965226,1.0876731449760748,0.747332617895874,0.7182969367306254,0.25302983731251427,0.5094271406797265,0.13910580296322475,0.533230580383853,0.3737194191769186,0
0.17606953603394512,-0.19840677719706143,0.019436236490821712,-0.04670763103688713,-0.4545971836487948,-1.020255749398285,1.0387377718387212,0.8578800250408896,0.7748150464457294,-0.1307645549755757,0.2404541003939999,-0.012292293914928781,0.1984716809978248,0.04218557797852491,0
-0.053830924246564806,-0.23245335542185974,0.06668669559864064,0.026087201154519405,-0.5436530762769772,-1.4836716211787133,0.7223206989312407,0.19459558217084527,-0.4469735018067403,-0.5145589472637111,-0.17390977247862374,-0.5161333630711334,-0.10601646684793922,-0.07729073608829082,0
-0.13503429783187823,-0.18154876273625006,-0.028277462412139687,-0.022600251544916936,0.019596530345424187,-1.5655134150481966,0.42965866152732535,-0.5247714477386146,-1.3562501492816919,-1.0011643211010417,-0.31889674164165954,-0.5918324115102103,-0.1211518426180578,-0.024276354305390435,0
0.05426447565597496,-0.19840677719706143,-0.14686684997682947,0.17120417182179354,0.28676420822997156,-1.129732434704193,0.6976154620075339,-0.16508793278388467,-0.47523255666429226,-1.1289294243854846,-0.15331273786213992,-0.23889788696960165,-0.15142259415829495,-0.07729073608829082,0
0.31105696225368723,-0.04569299914023238,0.20936455251238237,0.6802953034461433,0.04908906621580962,-1.3205194736596895,0.8681766169231383,0.3881883585857656,0.348712827123188,-0.463652538923784,0.1572582350803788,0.1897356860101284,0.046227607074929296,0.02873802747750994,0
0.39226033583900066,0.15759482229906085,0.6841853425662419,0.8017775883369862,-0.2175003266517116,-1.9470874929591897,0.6002198164429082,-0.05454052563886912,-0.16272065588677426,0.17617114236795312,0.40603810417351954,0.3155730652335514,0.41155403007509783,0.43992274472044746,0
0.48690972258292725,0.2594040076702802,0.9218273574907639,0.7289827561455797,-0.24699286252209704,-1.8110387966566956,0.6491551895802619,-0.1925899706589464,-0.13446160102922228,0.5599655346560886,0.6338170752262785,0.2654347344492052,0.6095010033822523,0.7316311478965692,0
0.7033641697048241,0.37807120750232603,0.874576898382945,0.8745724205283928,-0.5141605404066444,-1.1020975432677684,1.2824644361053046,0.7753739114156063,0.9172185189631201,0.8419471102643696,0.985985980825626,0.6178777067272564,0.792015828845358,0.7052532603753359,0
0.2976109490950741,0.022069608006203712,0.8268631994799835,0.34090121569657683,-0.6032164330348269,-0.7205234653567755,1.6967522552874923,0.6923285421457015,0.6047066181856525,0.12526473402807137,0.7788040443893143,1.0214421143148134,0.7006100300768401,0.47974818274271935,0
0.21640757550976064,-0.13064417005064038,0.6605601130123324,0.5105982595713601,-0.3661195760376911,-0.7481583567932483,1.5261911003718878,0.6648265042705908,0.8601463101332008,0.3044353280871119,0.5094271406797265,0.5928085413350832,0.4266894058452164,0.2940685431323748,0
0.14891386239990156,-0.14750218451145175,0.23298978206624968,0.36548128890408593,-0.42510464777846196,-0.6934200141402459,1.428795454807262,0.7198305800207633,0.5476344093556827,0.12526473402807137,0.1366612004639317,-0.03736145930710189,0.18333630522773323,-0.03746529806601891,0
-0.053830924246564806,-0.4188831624003266,-0.4794730229120897,0.14709679232986633,-0.2175003266517116,-1.5926168662647262,0.624449952656555,-0.9394590384435171,-1.2138466767643012,-0.2844819448646981,-0.2777026724086919,-0.6424622945571586,0.031092231304837712,-0.22314493767636348,0
-0.22968368457580485,-0.3170739770291072,-0.669864578728835,0.36548128890408593,-0.06945936228275827,-1.7015621113507393,0.45388879774095053,-1.0225044077134218,-1.0149250945318065,-0.053905860031014545,-0.25670177436838354,-0.7933688391727101,0.09193050645918827,-0.1303051178711912,0
-0.35122509763693377,-0.3170739770291072,-0.9070433538581724,-0.16818991592773003,-0.42510464777846196,-1.0478906408347095,0.3811983891000534,-0.9669610763186278,-1.0149250945318065,-1.3335532226145341,-0.5672727473109023,-0.9196977706586904,-0.09058431900391739,-0.40882457728668453,0
0.0002167757047050779,-0.13064417005064038,-0.5985256502719641,0.5833930917627667,0.19770831560178911,-0.7481583567932483,0.7223206989312407,0.11155021290094047,0.32045377226568644,-0.7196818279274311,-0.4016887435313827,-0.465995032286832,-0.07544894323379882,-0.1965084434146965,0
-0.053830924246564806,0.14073680783823445,-0.19458054887979087,0.8499923473209267,0.4642977084692577,-0.3936877300987847,0.8924067531367635,0.5262378036058919,0.7465559915881774,0.02245375247883078,-0.21550770513541592,-0.3902959838477552,-0.07544894323379882,-0.14349406163181966,0
-0.1621899714659218,0.19131085122069866,-0.07599116131510109,0.7048753766536096,0.316256744100357,-0.28474248501277166,0.8197163444958663,0.22209762004595604,0.5193753544981812,0.12526473402807137,-0.21550770513541592,-0.5412025284633066,-0.014610668079421265,-0.06410179232766235,0
0.14891386239990156,0.22535742944548193,0.16165085360937884,0.7530901356375499,0.40531263672853945,-0.2300041423598177,0.9902774994114492,0.49873576573078116,1.0308088375081434,0.12526473402807137,-0.0705207359723801,-0.18875955618525544,0.24417458038208378,0.09519995976142528,0
0.4597540489488837,0.3949292219631374,0.6133096539045134,0.898679800020363,0.40531263672853945,-0.4207911813152659,1.2582342998916578,0.9134233564356836,1.25798947459819,0.6368242296006497,0.4888301060632426,0.466971162111705,0.7006100300768401,0.2542431051101029,0
0.31105696225368723,0.05578563692784149,0.6605601130123324,0.6561879239541731,0.19770831560178911,-0.6115782202707624,0.8197163444958663,-0.2206312641786787,-0.6170819300668172,0.5090591263161613,0.5094271406797265,0.5171094928960065,0.792015828845358,0.47974818274271935,0
0.351658649046344,-0.23245335542185974,0.3515791696309395,0.5592857122707965,-0.3661195760376911,-0.5573713178377517,0.9902774994114492,-0.46922811634377154,-0.645895084039235,-0.463652538923784,0.1160641658474479,0.16417496835539788,0.4723923052294754,0.14821434154432567,0
0.33821263588773076,-0.0119769702185946,0.32795394007703,0.7048753766536096,-0.3956121119080765,-0.8294687104427885,1.185068790540679,-0.1095446013890416,0.007941871488168441,-0.3353883532046252,0.1782591331207239,0.21480485140230154,0.6095010033822523,0.22786521758886946,0
0.2841649359364849,0.29312003659191804,0.6133096539045134,0.9227871795123331,0.25669338734250735,-0.7481583567932483,1.1361334174033468,0.3326450271909716,0.6900378818731239,0.4322004313716002,0.6132200406097946,0.466971162111705,0.8985570033839945,0.47974818274271935,0
0.27045527546103054,0.12354824407426256,0.7082738119152938,0.7771975151295201,0.25669338734250735,-0.6386816714872919,1.0387377718387212,0.4156903964608764,0.6900378818731239,0.6113710254306861,0.7788040443893143,0.5677393759429549,0.8679894797698541,0.30725748689300325,0
0.12175818876583404,-0.23245335542185974,0.6133096539045134,0.6075004712547368,-0.12844443402352915,-0.966048846965226,1.014507635625096,0.49873576573078116,0.4057850359531578,0.3044353280871119,0.5716221079530025,0.466971162111705,0.6552039027665113,0.1215778472826587,0
0.0002167757047050779,-0.2830273988043089,0.47063179699077173,0.6075004712547368,-0.03938854139534668,-1.074994092051239,0.7465508351448659,0.6923285421457015,0.5193753544981812,0.25302983731251427,0.3022452042434146,0.23987401679447465,0.5029598288436158,0.2012287233272025,0
0.18951554919255828,0.004881044242216773,0.20936455251238237,0.6802953034461433,0.10865242297360664,-0.6386816714872919,0.4785940346646574,0.5262378036058919,0.6612247279007061,0.5090591263161613,0.3232461022837597,0.13910580296322475,0.5486627282278748,0.13502539778369718,0
0.36510466220495713,0.3949292219631374,0.1380256240555115,0.8499923473209267,0.316256744100357,-0.3665842788822552,0.7707809713585126,0.2776409514407501,0.46230314566821135,0.35534173642703903,0.46823307144679555,0.13910580296322475,0.5637981039979933,-0.05065424182664738,0
0.1354678492412884,0.24221544390630834,0.20936455251238237,0.9227871795123331,0.5238610652271073,-0.5844747690542812,1.1608386543270321,0.24959965792106678,0.12153219003319177,-0.23307645409010047,0.1572582350803788,-0.0874997900914481,0.30501285553646135,-0.24978143193800692,0
-0.13503429783187823,-0.19840677719706143,-0.07599116131510109,0.6802953034461433,-0.06945936228275827,-0.8023652592262589,1.1119032811897,0.19459558217084527,-0.21923876560187822,-0.8474469312119194,-0.3604946742984517,-0.4153651492398836,0.031092231304837712,-0.36899913926441263,0
-0.06754058472199519,-0.11378615558981398,0.06668669559864064,0.43780342737995354,-0.7217648615333948,-0.8294687104427885,0.7465508351448659,-0.16508793278388467,-0.36164223811926893,-0.9757111169310781,-0.21550770513541592,-0.13812967313835178,0.2290392046119922,-0.06410179232766235,0
0.351658649046344,0.3099780510527294,0.874576898382945,0.9227871795123331,-0.2175003266517116,-1.074994092051239,0.5270543070919294,-0.38618274707386674,0.007941871488168441,-0.23307645409010047,0.5300241752962103,0.6935767551663331,0.7006100300768401,0.426733800959819,0
0.5681130961682407,0.3271666148167013,1.1830946019691533,1.3831908584372037,0.19770831560178911,-1.238677679790206,0.4785940346646574,-0.1095446013890416,0.5476344093556827,0.6627765162052838,0.8821930808955579,1.0465112797069864,0.883421627613876,0.4531116884810759,0
0.21640757550976064,-0.04569299914023238,0.7796127403721647,0.8745724205283928,-0.42510464777846196,-0.966048846965226,0.5517595440156362,0.166554288651162,0.6329656730431541,0.534512330486125,0.44723217340645044,0.5171094928960065,0.5789334797681119,0.05537452173915338,0
-0.13503429783187823,-0.3002159625682808,0.4942570265446812,0.43780342737995354,-0.5737238971644414,-0.911310504312272,0.6491551895802619,0.3326450271909716,0.43404409081065937,-0.1307645549755757,0.07446623319065572,0.03833758913197488,0.24417458038208378,-0.1303051178711912,0
0.10831217560724485,-0.21526479165788784,0.6841853425662419,0.8258849678289565,0.25669338734250735,-1.074994092051239,0.624449952656555,0.4156903964608764,0.32045377226568644,-0.002999451691132791,0.1988561677372077,0.23987401679447465,0.3507157549207203,-0.07729073608829082,0
0.44630803579027056,-0.14750218451145175,0.8032379699260741,0.9714746322117696,0.37582010085815404,-0.7752618080097294,0.7707809713585126,0.44319243433598715,0.32045377226568644,-0.002999451691132791,0.38503720613317444,0.466971162111705,0.5029598288436158,0.01554908371688147,0
0.31105696225368723,-0.2661693843434975,0.636934883458423,0.6802953034461433,-0.18800779078132618,-0.5573713178377517,0.8924067531367635,0.8303779871657788,0.7182969367306254,-0.2076232499201369,0.38503720613317444,0.466971162111705,0.5486627282278748,0.24105416134949795,0
0.09486616244863168,-0.18154876273625006,0.6841853425662419,0.7048753766536096,-0.0989518981531437,-0.9389453957486965,0.6976154620075339,1.079514094975493,1.0308088375081434,0.2016243465379167,0.6544141098427623,0.6178777067272564,0.7311775536910075,0.426733800959819,0
0.20296156235114746,-0.16436019897227816,0.019436236490821712,0.6802953034461433,-0.15851525491094073,-0.6115782202707624,0.575989680229283,0.7198305800207633,0.8036282004180968,-0.053905860031014545,0.6338170752262785,0.3662029482804551,0.487527680999594,-0.01082880380437547,0
0.17606953603394512,-0.24931136988267114,-0.19458054887979087,0.36548128890408593,0.19770831560178911,-0.6663165629237647,0.42965866152732535,0.5537398414809537,0.3775259810956058,-0.002999451691132791,0.34384313690024354,-0.03736145930710189,0.33558037915060174,0.02873802747750994,0
-0.01322923745390809,-0.24931136988267114,-0.645776109379741,0.026087201154519405,0.5238610652271073,-0.7205234653567755,0.575989680229283,-0.05454052563886912,-0.2763109744317976,-0.3867938439792228,0.3232461022837597,-0.3652268184555821,0.4572569294593568,-0.10366862360954776,0
0.05426447565597496,-0.13064417005064038,-0.645776109379741,0.09888203334592595,0.07915988710322121,-0.6934200141402459,0.45388879774095053,0.24959965792106678,-0.19097971074432624,-0.3867938439792228,0.2404541003939999,-0.31459693540867845,0.30501285553646135,-0.05065424182664738,0
0.10831217560724485,-0.06288156290420428,-0.12324162042292001,0.5592857122707965,0.6424094937256226,-0.7481583567932483,0.2590975066117209,0.44319243433598715,-0.049130337341750936,0.02245375247883078,0.4266351387899666,0.16417496835539788,0.28987747976634276,-0.024276354305390435,0
-0.02693889792933847,-0.21526479165788784,-0.2659194773366617,0.41369604788798336,0.6129169578552898,-0.7481583567932483,0.16170186104709522,0.44319243433598715,0.26338156343571667,0.09931244742339196,0.40603810417351954,0.21480485140230154,0.24417458038208378,-0.23633388143696843,0
-0.1621899714659218,-0.4016945986363547,-0.8834181243042629,-0.16818991592773003,-0.3661195760376911,-0.9389453957486965,0.11276648790976318,0.22209762004595604,0.14979124489074375,-0.2844819448646981,0.0538691985741719,-0.4153651492398836,0.09193050645918827,-0.40882457728668453,0
-0.08098659788060836,-0.36797856971471693,-0.9311318232072243,-0.11950246322829366,-0.4545971836487948,-1.074994092051239,0.16170186104709522,-0.1925899706589464,-0.4469735018067403,-0.5659644380383088,0.012271265917379722,-0.6926006253414602,0.046227607074929296,-0.23633388143696843,0
0.0814201492900185,-0.18154876273625006,-0.5035614922611837,0.12298941283789615,0.22720085147217453,-0.9931522981817554,0.3564931521763465,-0.2756353399288512,-0.5034916115217939,-0.36134063980925923,0.2610511350104837,-0.2895277700165053,0.15276878161356583,0.002360139956253,0
0.0002167757047050779,-0.3511205552539055,-0.07599116131510109,-0.16818991592773003,-0.24699286252209704,-0.8842070530957424,0.42965866152732535,0.19459558217084527,-0.33338318326171695,-0.6173699288129063,0.3644401715166906,0.23987401679447465,0.25930995615220237,-0.14349406163181966,0
-0.04038491108795164,-0.14750218451145175,-0.09961639086901054,0.0015071279470532594,-0.03938854139534668,-1.1020975432677684,0.2590975066117209,-0.08204256351397989,0.03620092634572042,0.2016243465379167,0.6544141098427623,0.49204032750383336,0.5637981039979933,0.01554908371688147,0
0.0814201492900185,0.004881044242216773,-0.028277462412139687,0.09888203334592595,0.4348051725988723,-1.1020975432677684,0.5517595440156362,0.22209762004595604,0.46230314566821135,0.5859178212607226,0.8409990116625903,0.466971162111705,0.6552039027665113,0.2012287233272025,0
0.2841649359364849,-0.14750218451145175,0.20936455251238237,0.0501945806464896,0.4642977084692577,-0.7205234653567755,0.9655722624877423,0.7198305800207633,0.3775259810956058,0.25302983731251427,0.861596046279074,0.5677393759429549,0.6246363791523709,0.18803977956659756,0
0.36510466220495713,-0.21526479165788784,0.3756676389800335,0.026087201154519405,0.19770831560178911,-0.44842607275173874,0.9413421262741172,0.747332617895874,0.6900378818731239,0.534512330486125,0.92379101355235,0.8199056866523136,0.792015828845358,0.2808795993717699,0
-0.04038491108795164,-0.2661693843434975,-0.09961639086901054,-0.07081501052885733,0.04908906621580962,-1.0478906408347095,0.575989680229283,0.166554288651162,-0.049130337341750936,-0.1307645549755757,0.2816481696269308,0.23987401679447465,0.3201482313065799,-0.09047967984891929,0
0.10831217560724485,-0.07973957736503069,0.06668669559864064,0.17120417182179354,-0.009896005524961247,-0.911310504312272,0.7223206989312407,0.22209762004595604,0.03620092634572042,0.02245375247883078,0.3644401715166906,0.34064223062567983,0.28987747976634276,-0.1303051178711912,0
-0.09443261103922153,-0.18154876273625006,-0.40859733425040345,-0.2164046749116704,-0.2175003266517116,-0.966048846965226,0.7950111075721379,0.24959965792106678,-0.19097971074432624,-0.5405112338683451,0.3022452042434146,-0.012292293914928781,0.12249803007335566,-0.18331949965409156,0
-0.37838077127097736,-0.5712663911540101,-0.8834181243042629,-0.7982906387273838,-0.7512573974037275,-1.0478906408347095,0.673385325793887,0.166554288651162,-0.020317183369383537,-0.8219937270419558,0.0538691985741719,-0.33966610080080684,-0.02974604384953984,-0.209955993915735,0
-0.35122509763693377,-0.5203617984684005,-0.8120791958473921,-0.555798762661194,-0.5141605404066444,-0.857103601879213,0.6491551895802619,0.5262378036058919,0.6047066181856525,-0.1307645549755757,0.1782591331207239,-0.0874997900914481,0.09193050645918827,-0.06410179232766235,0
-0.1621899714659218,-0.07973957736503069,-0.645776109379741,-0.2164046749116704,0.19770831560178911,-0.7481583567932483,0.575989680229283,0.6092831728757967,0.3775259810956058,0.3044353280871119,0.5510250733365186,0.2654347344492052,0.36585113069083885,0.09519995976142528,0
0.027108802021931413,-0.0119769702185946,-0.5508119513689606,-0.26509212761110673,0.019596530345424187,-0.9931522981817554,0.28332764282534606,0.166554288651162,-0.16272065588677426,-0.02845265586105097,0.46823307144679555,0.2654347344492052,0.3507157549207203,0.06856346549978184,0
0.06771048881458813,-0.23245335542185974,-0.14686684997682947,-0.09539508373632348,-0.42510464777846196,-1.183939337137252,0.08853635169611639,0.13905225077605124,0.0644599812032724,-0.2844819448646981,0.34384313690024354,0.2654347344492052,0.15276878161356583,-0.024276354305390435,0
0.027108802021931413,-0.19840677719706143,0.06668669559864064,-0.1922972954197002,0.019596530345424187,-0.9931522981817554,0.3080328797490529,0.4156903964608764,0.348712827123188,-0.3353883532046252,0.5510250733365186,0.466971162111705,0.25930995615220237,0.06856346549978184,0
-0.053830924246564806,-0.14750218451145175,-0.6221508798258314,-0.38610171878645366,-0.6622015047755452,-1.020255749398285,0.5270543070919294,-0.08204256351397989,-0.10564844705685489,-0.002999451691132791,0.44723217340645044,0.44190199671953184,0.38098650646095744,-0.024276354305390435,0
-0.40553644490504487,-0.588454954917982,-1.0024707516640952,-0.5799061421531642,-0.48466800453625897,-1.2657811310067355,0.015370842345137548,-0.5522734856136763,-0.47523255666429226,-0.6937295413227971,-0.0705207359723801,-0.23889788696960165,-0.13628721838817637,-0.36899913926441263,0
-0.2568393582098484,-0.6053129693787934,-1.4772915417179546,-0.967987682602167,-0.6622015047755452,-1.183939337137252,0.2590975066117209,-0.1375858949087739,0.007941871488168441,-0.5659644380383088,0.07446623319065572,-0.31459693540867845,0.09193050645918827,-0.14349406163181966,0
-0.32433307131973144,-0.6053129693787934,-1.5486304701748255,-0.8465053977113242,-0.8698058259022955,-1.074994092051239,0.6976154620075339,0.747332617895874,0.6329656730431541,-0.053905860031014545,0.2816481696269308,-0.13812967313835178,0.2744453319223209,-0.1965084434146965,0
-0.3918267844295905,-0.6562175620644182,-1.5486304701748255,-1.0162024415861075,-0.84031329003191,-0.966048846965226,0.8681766169231383,1.3006089092655244,0.9454775738206721,0.25302983731251427,0.3022452042434146,-0.2895277700165053,0.13763340584347425,-0.44865001530895643,0
-0.2025280109417373,-0.4866457695467627,-1.6199693986317385,-0.967987682602167,-0.7512573974037275,-1.1568358859207224,0.5028241708783042,0.7198305800207633,0.6047066181856525,0.2016243465379167,0.1572582350803788,-0.26396705236173007,0.046227607074929296,-0.3291737012421407,0
-0.09443261103922153,-0.2661693843434975,-1.3109884552503457,-0.33788695980251326,-0.5436530762769772,-1.4565681699622322,0.015370842345137548,-0.24813330205378947,-0.2480519195742456,-0.1307645549755757,0.1572582350803788,0.01326842373980177,0.15276878161356583,-0.10366862360954776,0
-0.14848031099049142,-0.2661693843434975,-1.4536663121640874,-0.7741832592354566,-0.7217648615333948,-1.4565681699622322,-0.3499816036996966,-0.358680709198805,-0.47523255666429226,-1.0011643211010417,-0.23610473975189974,-0.03736145930710189,-0.06031356746368024,-0.23633388143696843,0
0.0408184624973618,-0.06288156290420428,-1.3109884552503457,-0.4830039304697874,-0.6327089689051597,-1.620251757701199,-0.3742117399133218,-0.24813330205378947,-0.4469735018067403,-0.6682763371528334,0.033272163957688075,0.34064223062567983,0.06165975491897811,-0.10366862360954776,0
0.0002167757047050779,-0.21526479165788784,-1.2873632256964362,-0.555798762661194,-0.8108207541615772,-1.4565681699622322,0.18593199726074203,0.166554288651162,-0.33338318326171695,-0.6682763371528334,0.1988561677372077,0.01326842373980177,-0.10601646684793922,-0.1569416121328346,0
-0.14848031099049142,-0.3170739770291072,-1.5013800110670488,-0.7741832592354566,-0.958861718530478,-1.1020975432677684,0.3811983891000534,0.22209762004595604,-0.2480519195742456,-0.8474469312119194,-0.0083257686991041,-0.23889788696960165,-0.21255764138657574,-0.24978143193800692,0
0.44630803579027056,0.3440246292775277,-1.0974349096748754,-0.28919950710307696,-0.6622015047755452,-1.129732434704193,-0.033089430082134434,-0.2756353399288512,-0.10564844705685489,-0.23307645409010047,0.2194532023536548,0.16417496835539788,0.0005247076906703174,0.2940685431323748,0
0.9061089563512664,0.6491216360880403,-0.8834181243042629,-0.11950246322829366,-0.6622015047755452,-0.966048846965226,0.23486737039807407,0.166554288651162,0.348712827123188,-0.48910574309374755,0.1366612004639317,0.1897356860101284,-0.07544894323379882,0.5725880025478917,0
1.3250445428027884,1.1578370136409917,-0.6221508798258314,0.36548128890408593,-0.5141605404066444,-1.3747263760927486,-0.13048507564673845,0.0010028057559249147,0.007941871488168441,-0.6173699288129063,0.2404541003939999,0.34064223062567983,0.3201482313065799,0.877485349484642,0
1.9469885632175938,2.089986048533356,-0.05190269196604915,1.310868719961336,-0.2175003266517116,-2.0018258356121437,-0.7642694228818627,-0.883915707048723,-0.9013347759867832,-0.5914176422082723,0.5094271406797265,0.5426702105507817,0.6552039027665113,1.3153065609892465,0
2.6366899440590994,2.6664640332327436,0.1380256240555115,1.6015753550114233,-0.2770636834095086,-1.8110387966566956,-0.9348305777974673,-0.9119570005684063,-0.7024131937542886,-0.6682763371528334,0.6132200406097946,0.6178777067272564,0.7311775536910075,1.7396802219928125,0
2.9206381042908793,2.8019892475256007,-0.07599116131510109,1.2621812672618566,-0.5436530762769772,-1.5113065126151861,-0.7395641859581559,-0.24813330205378947,-0.30457002928934956,-0.7705882362673582,0.7166090771160383,0.66850758977416,0.959395278538372,1.9651852996254053,0
3.0421795173520083,3.2088954397073324,-0.14686684997682947,1.4559856906286102,-0.3956121119080765,-1.6473552089177286,-0.49631262240165425,-0.6072775613638979,-1.1855876219067492,-1.205788119330046,0.6960120424995545,0.66850758977416,1.096503976691149,2.0844030069518347,0
3.3938850380104886,3.7513268461819216,0.1857393229584729,1.6256827345033935,-0.2770636834095086,-1.4836716211787133,-0.15519031257046692,-1.2435992220034529,-1.5834307863717385,-1.4104119175590952,0.6338170752262785,0.9708122312679096,1.0659364530770086,2.349733522606723,0
3.839976298096054,3.8022314388675316,0.6133096539045134,1.5046731433280465,-0.6032164330348269,-1.2110427883537815,0.015370842345137548,-0.9669610763186278,-1.0149250945318065,-1.1034762202155666,0.7372061117325222,1.3743766388554666,1.2790188021542546,2.747470689348622,0
4.137370471486423,4.276569688892554,0.8268631994799835,2.1834613188271796,-0.6327089689051597,-1.9470874929591897,-0.49631262240165425,-0.9669610763186278,-1.0719973033617258,-1.1289294243854846,1.2137649518784217,1.6516121149569984,1.8422921984615777,3.0924520810480542,0
4.502522005303516,4.802143080906316,1.2780587599799336,2.474167953877267,-0.2770636834095086,-1.7291970027872121,-0.13048507564673845,-0.24813330205378947,0.03620092634572042,-0.30993514903466163,1.7315178612572524,2.1053148533289017,2.2378893730019565,3.370712933723161,0
4.705266791949959,4.869905688052753,1.5397892442535075,2.8376694211188034,-0.03938854139534668,-1.620251757701199,0.040076079268844406,0.3881883585857656,0.46230314566821135,0.4322004313716002,2.2904648398690504,2.4833185432616833,2.6640540711564755,3.6360434493780494,0
4.570015718413376,4.734380473759881,1.2780587599799336,2.983259085501617,-0.0989518981531437,-1.7563004540036933,-0.20365058499773891,0.166554288651162,0.14979124489074375,0.22757663314255072,2.311465737909359,2.5088792609164585,2.8008659972353493,3.6096655618567923,0
4.637773078840075,4.819001095367143,1.3971113873397658,2.9350443265176764,-0.03938854139534668,-1.7563004540036933,-0.13048507564673845,-0.1375858949087739,-0.16272065588677426,-0.07985814663569396,2.124880836089531,2.5840867570929333,2.7097569705407345,3.583029067595149,0
4.827071852327928,4.8361896591311,1.5870397033613266,2.813562041626833,-0.009896005524961247,-1.620251757701199,0.16170186104709522,-0.6628208927586919,-0.8160035122993119,-0.053905860031014545,2.228673736019599,2.76055401936326,2.8008659972353493,3.7156943254225934,0
4.799916178693885,4.666617866613475,1.3971113873397658,2.5710701655606436,0.04908906621580962,-1.4294647187457026,0.040076079268844406,-1.2160971841283421,-1.0149250945318065,0.07385924325342838,2.5186476743456705,2.7861147370179906,3.2270306953898684,3.9543883468158145,0
4.908011578596401,4.751238488220707,1.610664932915236,2.6679723772440203,0.40531263672853945,-1.1020975432677684,-0.15519031257046692,-1.3266445912733578,-0.9013347759867832,0.17617114236795312,2.6842316781251903,2.88688295084924,3.622924642004177,4.14006798642616,0
4.989214952181738,4.768427051984694,2.1095741923181475,2.813562041626833,0.3457492799706898,-1.074994092051239,-0.08202480321946648,-1.4371919984183734,-1.384509204139244,0.09931244742339196,2.7048287127416373,2.98765116468049,3.6531953935443875,4.073606054142243,0
4.745868478742615,4.327474281578164,2.1095741923181475,2.474167953877267,-0.30655621927989407,-1.5655134150481966,-0.10625493943311327,-1.6857888505834662,-1.5551717315141866,-0.02845265586105097,2.870412716521157,3.063350213119567,3.714033668698765,4.113431492164516,0
4.745868478742615,3.9714726820820263,2.0623237332103708,2.1834613188271796,-0.3360487551502795,-1.7563004540036933,0.21063723418444888,-1.1330518148584374,-0.8448166662717297,0.5859178212607226,3.264179554777297,3.3405856892211436,4.231604165621829,4.219718862470703,0
4.651219091998689,3.581755053664266,1.9432711058504961,2.0137642749523965,-0.8108207541615772,-2.0289292868286735,0.0643062154824912,-1.2160971841283421,-1.0149250945318065,-0.02845265586105097,2.994802651067709,3.1390492615586436,4.1553337426234025,4.285922188014232,0
4.597171392047419,3.191706875943346,1.848306947839758,1.6015753550114233,-0.9293691826600925,-1.8923491503062357,-0.10625493943311327,-1.1055497769833267,-1.043738248504174,-0.48910574309374755,2.725425747358121,3.063350213119567,4.1553337426234025,4.325747626036504,0
4.4753663316694485,3.1239442687969396,1.8246817182858486,1.3831908584372037,-0.5141605404066444,-1.5384099638317155,-0.2278807212113641,-1.520237367688278,-1.3562501492816919,-0.3353883532046252,2.870412716521157,3.038281047727394,4.307577816546298,4.471601827624553,0
4.813362191852498,3.3103740757753912,2.038698503656461,1.6502628077108596,-0.30655621927989407,-1.8923491503062357,-0.3010462305623429,-1.8793816269983865,-1.100256358219278,0.5859178212607226,3.802529498772611,3.5421221168835983,5.205610112239622,5.1346695100213635,0
5.070418325767052,3.1070862543361133,2.32359097768876,1.7225849461867702,-0.6622015047755452,-2.328661570870183,-0.13048507564673845,-1.3266445912733578,-0.10564844705685489,1.5581304040659976,4.506867309971306,4.172292117525829,5.935966186166002,5.479392294980386,0
4.691820778791345,2.5137502551758995,2.157287891221151,1.4805657638361194,-0.9883542544008633,-2.1107710806981568,0.18593199726074203,-0.7733682999037075,0.14979124489074375,1.5840826906706316,4.216893371645235,4.021385572910233,5.570936535239791,4.988815308433291,0
4.110478445169196,1.361124835080285,1.634753402264288,0.5592857122707965,-1.0774101470290458,-1.8381422478731768,-0.008859293868487638,0.166554288651162,0.9172185189631201,1.353506605836948,3.926919433319163,3.920125806816425,5.205610112239622,4.8297721630846135,0
3.9346256848399803,1.174695028101818,1.1830946019691533,0.0743019601384598,-1.2850144681557962,-1.8110387966566956,-0.25258595813507095,-0.05454052563886912,0.26338156343571667,1.2257415025524596,3.574750527719852,3.391215572268047,5.007663138932468,4.551252703669097,0
4.042721084742496,0.9882652211233363,0.7796127403721647,0.5592857122707965,-0.8698058259022955,-1.7563004540036933,-0.1794204487840921,-0.1095446013890416,0.14979124489074375,1.3280534016669845,4.175295438988443,3.2648866407820667,5.662045561934379,4.922353376149376,0
4.313223231815663,1.0560278282697724,1.5870397033613266,0.7530901356375499,-0.5737238971644414,-1.5113065126151861,-0.10625493943311327,-0.16508793278388467,0.12153219003319177,1.9424238787888033,4.713645382983757,3.895056641424252,6.179616058857416,5.293712655370041,0
4.205127831913123,1.039169813808961,1.6583786318181974,0.7289827561455797,-0.5436530762769772,-1.4836716211787133,0.040076079268844406,-0.46922811634377154,1.1443991560531668,2.1470476770178073,4.983022286693345,4.222922000572732,6.544942481857584,5.094844071999092,0
3.9886733847912264,0.7509308214592597,1.4443618464475847,0.36548128890408593,-0.6622015047755452,-1.4836716211787133,0.2590975066117209,0.22209762004595604,1.4286520019731328,1.8655651838442422,4.444672342698031,3.6428903307148484,5.99710123339431,4.856150050605847,0
3.785928598144784,0.27626202213109163,1.325772458882895,-0.04670763103688713,-0.958861718530478,-1.5113065126151861,0.21063723418444888,0.6923285421457015,1.5422423205181057,2.09564218624321,4.630853381093997,3.51705295149147,6.057939508548688,4.948989870411019,1
3.447932737961758,-0.36797856971471693,0.8032379699260741,-0.33788695980251326,-1.5521821460403435,-1.9470874929591897,-0.4473772492643006,0.2776409514407501,0.14979124489074375,1.1997892159478256,4.113100471715167,3.5421221168835983,5.631774810394141,4.458412883863948,1
3.312681664425175,-0.6390289983004313,0.7796127403721647,-0.7254958065359772,-1.7892790030374268,-2.4105033647396663,-0.5690030310425515,-0.41368478494897754,-0.7306722486118405,0.38079494059700264,3.8441274314294036,3.1390492615586436,5.266448387394,4.378762007819404,1
3.299235651266562,-0.7239801692108392,0.9695410563937253,-0.6768083538365409,-1.581674681910729,-2.3557650220867123,-0.4473772492643006,-1.1330518148584374,-1.100256358219278,0.2016243465379167,4.009711435208923,3.2398174753898936,5.281583763164119,4.4449653333629096,1
3.3261276775837643,-0.7067916054468673,0.9459158268398158,-0.38610171878645366,-1.4631262534121612,-2.056032738045203,-0.15519031257046692,-1.464694036293435,-1.1573285670491973,0.4576536355415638,4.071906402482199,3.391215572268047,5.570936535239791,4.4449653333629096,1
2.9340841174494687,-0.9104099761893061,0.6841853425662419,-0.6768083538365409,-1.5521821460403435,-2.1926128745676405,0.015370842345137548,0.11155021290094047,1.513983265660604,1.6095358948405951,4.444672342698031,3.289955806174195,5.662045561934379,4.259285693752565,1
2.893482430656812,-1.0627932049429896,0.7082738119152938,-0.6044862153606733,-1.3740703607839786,-1.8923491503062357,0.2590975066117209,1.1900615021205088,2.280856440618165,1.993330287128685,4.382477375424754,3.1390492615586436,5.722883837088756,4.153256930186788,1
2.6907376440103694,-1.486557411585548,0.6841853425662419,-0.7496031860279474,-1.1074809679164574,-1.3747263760927486,0.575989680229283,1.1900615021205088,1.8830132761531757,2.172500881187771,4.279088338918511,2.9370212816335863,5.799154260087156,3.9145629087935427,1
2.487992857363903,-1.4696993971247216,0.47063179699077173,-0.7496031860279474,-0.84031329003191,-1.020255749398285,0.624449952656555,1.0239707635806992,1.968344539840647,2.3771246794168204,4.258087440878166,3.0127203300726633,5.509801488011483,3.68905783116095,1
2.420235496937203,-1.1814604047750354,0.1380256240555115,-0.5075840036772966,-0.84031329003191,-0.9389453957486965,0.3564931521763465,1.162559464245398,2.1960792760455092,2.249359576132332,4.154698404371959,3.063350213119567,5.342422038318469,3.583029067595149,1
2.298694083876074,-1.3510321972926909,-0.12324162042292001,-0.7254958065359772,-1.1074809679164574,-1.129732434704193,0.08853635169611639,0.747332617895874,1.513983265660604,1.916471592184124,4.113100471715167,2.9370212816335863,5.509801488011483,3.6492323931386776,1
2.055347610436951,-1.8597475748456422,-0.004652232858230225,-1.3314891498436823,-1.3150852890432079,-1.4294647187457026,-0.008859293868487638,0.08404817502582972,0.9172185189631201,1.8655651838442422,4.071906402482199,2.76055401936326,5.403557085546777,3.5033781915506053,1
1.8523391764736672,-2.147656017892183,-0.09961639086901054,-1.573981025909872,-1.4631262534121612,-1.7015621113507393,-0.033089430082134434,0.13905225077605124,1.229730419740638,1.737300998125038,3.8441274314294036,2.5088792609164585,5.114204313471104,3.079004530547039,1
1.7036420897784708,-2.2835117814881856,-0.5749004207180547,-1.6949906170851976,-1.759786467167094,-1.7291970027872121,0.13747172483347003,0.49873576573078116,1.4857242108030522,1.5326771998960338,3.699140462266404,2.332411998646132,4.992527763162349,2.999612261242882,1
1.608992703034568,-2.4699415884666673,-0.645776109379741,-2.010277325342794,-1.8187715389078123,-1.5384099638317155,0.40542852531367857,0.8303779871657788,1.5993145293480755,1.5581304040659976,3.7819324641561276,2.4582493778695103,4.825148313469362,3.1718443503522114,1
1.6227023635099984,-2.4699415884666673,-0.14686684997682947,-2.0830721575342004,-1.2850144681557962,-1.4294647187457026,0.5517595440156362,1.079514094975493,1.8830132761531757,1.737300998125038,3.947516467935647,2.88688295084924,4.764310038314985,3.158655406591583,1
1.717351750253925,-2.2494652032634024,-0.05190269196604915,-1.8646876609599807,-0.8698058259022955,-1.5113065126151861,0.3811983891000534,1.079514094975493,1.9118264301255432,1.8910183880141604,4.009711435208923,2.98765116468049,4.961960239548209,3.025990148764139,1
1.5821006767173418,-2.4699415884666673,-0.645776109379741,-1.9861699458508237,-1.1664660396572284,-1.6744586601342097,0.42965866152732535,0.9689666878305266,1.3433207382856613,1.6095358948405951,3.6575425296095756,2.4582493778695103,4.855419065009572,2.747470689348622,1
1.2306588033757029,-2.9783264167164734,-0.9070433538581724,-2.6403780481424475,-1.3740703607839786,-1.7563004540036933,0.8197163444958663,0.8303779871657788,1.0878810463380628,1.2257415025524596,3.3881656258999877,2.1810139017679786,4.444686514699075,2.561791049738301,1
1.2169491429002486,-2.8937057951092107,-0.669864578728835,-2.7372802598258246,-1.1074809679164574,-1.7291970027872121,0.8439464807094915,0.6367852107508585,1.4569110568306343,1.7632532847297173,3.699140462266404,2.5840867570929333,4.551227689237711,2.880135947176066,1
1.4062479163881019,-2.6563713954451345,-0.6221508798258314,-2.3009839603929025,-0.958861718530478,-1.7834039052202229,0.624449952656555,0.5262378036058919,1.4569110568306343,2.30076506690693,4.092503437098683,2.7861147370179906,4.764310038314985,3.0128012050035102,1
1.474005276814802,-2.6054668027595245,-0.14686684997682947,-2.4952610774751736,-1.1959585755276136,-1.129732434704193,0.9902774994114492,2.047477977050095,3.0765427695480936,3.17066575059768,4.4236714446576855,3.2648866407820667,5.022798514702586,3.0526266430257825,1
1.1088537429977328,-2.7241340025915703,-0.2659194773366617,-2.7131728803338544,-0.9293691826600925,-0.6934200141402459,1.404090217883577,2.0749800149251567,2.451518967993108,2.4539833743613815,4.113100471715167,2.65978580553201,4.581498440777949,2.5884275439999445,1
1.1494554297903894,-2.7581805808163535,-0.09961639086901054,-2.373778792584309,-0.6032164330348269,-0.5026329751847494,1.6235867459365134,1.9088892763853471,2.6221814953680505,2.7614181541396263,4.071906402482199,2.7861147370179906,4.56636306500783,2.6414419257828445,1
1.0276503694124193,-2.9105638095700375,-0.4794730229120897,-2.7372802598258246,-1.6412380386685261,-1.238677679790206,1.5261911003718878,1.6602924242202544,2.1107480123580378,2.1979540853577344,3.5541534931033687,2.332411998646132,4.125062991083192,2.3895589606289946,1
0.7843038959732963,-3.1310401947733024,-0.40859733425040345,-2.9069773037005864,-1.4631262534121612,-1.129732434704193,1.428795454807262,1.5217037235555555,1.6275735842056274,1.8910183880141604,3.326374522050573,2.433180212477382,3.9422513935461567,2.296719140823823,1
0.6896545092293697,-3.232849380144522,-0.7407402673905212,-2.7131728803338544,-1.1664660396572284,-0.7481583567932483,1.428795454807262,1.8538852006351747,2.3379286494480844,2.018783491298649,3.4297635585568167,2.4833185432616833,3.851142366851542,2.2038793210186505,1
0.5544034356928104,-3.283423423526971,-0.9783822823150433,-2.8346551652247185,-1.2850144681557962,-0.6934200141402459,1.4772557272345557,2.4066222363602034,3.3890546703256113,2.530842069305943,3.636945494993128,2.357481164038305,4.079360091698933,2.097591950712463,1
0.3788143226803875,-3.368374594437379,-0.8361676651964861,-3.0284595885914505,-1.403562896654364,-0.911310504312272,1.428795454807262,2.4621655677549974,3.105355923520461,2.78687135830959,3.615944596952783,2.433180212477382,4.109927615313074,2.018199681408306,1
0.2841649359364849,-3.351186030673407,-0.6934898082827444,-2.979772135892014,-1.6111672177810619,-0.8842070530957424,1.185068790540679,1.2731068713904135,1.655832639063129,1.8141596930695991,3.3053736240102647,2.155944736375805,3.6380600177742957,1.89872336734149,1
0.39226033583900066,-3.436137201583815,-0.6934898082827444,-3.0284595885914505,-1.3150852890432079,-0.911310504312272,1.5746513727991382,2.213029459945283,2.650440550225552,2.274812780302296,3.181387552887537,2.1810139017679786,3.6380600177742957,1.858897929319218,1
0.4328620226316574,-3.1988028019197237,-0.7407402673905212,-2.8346551652247185,-1.1074809679164574,-0.911310504312272,1.3556299454562832,1.743337793490159,2.1960792760455092,2.2239063719623684,3.3053736240102647,1.953916756450748,3.6531953935443875,1.9119123111021186,1
0.44630803579027056,-3.029231009402083,-0.645776109379741,-2.6890655008419055,-1.0774101470290458,-0.8294687104427885,1.2092989267543257,1.8538852006351747,2.1672661220731415,1.9678770829587668,3.139789620230745,1.7022419980039467,3.6837629171585546,1.8457089855585895,1
0.4057063489976138,-3.3343280162125954,-0.5035614922611837,-2.8346551652247185,-0.9883542544008633,-0.7752618080097294,1.5261911003718878,2.241070753464966,2.3661877043056365,1.8910183880141604,2.76702368001495,1.8531485426194982,3.4401130444671413,1.6998547839705405,1
0.4328620226316574,-3.181944787458912,-0.5035614922611837,-2.616270668650499,-0.780749933274113,-0.7205234653567755,1.5504212365855345,1.687794462095365,1.8547542212956236,1.737300998125038,2.76702368001495,2.1053148533289017,3.166192420235491,1.6600293459482687,1
0.5140653962169708,-2.486799602927479,-0.6221508798258314,-2.204081748709526,-0.9293691826600925,-0.6934200141402459,1.185068790540679,1.1900615021205088,1.4286520019731328,1.5581304040659976,2.787620714631397,2.0802456879367286,3.013948346312595,1.5671895261430964,1
0.4194160094730442,-2.351274388634622,-0.7171150378366118,-2.349671413092339,-1.136973503786843,-0.6934200141402459,1.2092989267543257,1.6047490928254602,1.8547542212956236,1.2511947067224232,2.2076728379792905,1.8531485426194982,2.6183511717722165,1.2356556849446791,1
0.17606953603394512,-2.5208461811522773,-0.6934898082827444,-2.398358865791797,-0.9883542544008633,-0.7481583567932483,1.404090217883577,1.8538852006351747,2.0254167486705663,1.0720241126633374,1.938699797693564,1.4751448526866717,2.177051097847579,0.9837727197908291,1
0.21640757550976064,-2.198560610577793,-0.5985256502719641,-1.8405802814680106,-0.6922723256630093,-0.911310504312272,1.185068790540679,1.4666996478053338,1.968344539840647,1.353506605836948,2.2698678052525665,1.2229785419773131,2.1921864736176975,1.0766125395960016,1
0.31105696225368723,-1.961226210913701,-0.669864578728835,-1.7918928287685743,-0.8108207541615772,-1.020255749398285,0.9413421262741172,1.1345181707257148,1.8547542212956236,1.4817707915561067,2.249270770636083,1.2485392596320437,2.3595659233107114,0.9439472817685572,1
-0.37838077127097736,-2.7581805808163535,-1.0733464403258235,-2.398358865791797,-0.780749933274113,-0.9389453957486965,0.7950111075721379,0.581781135000686,0.6047066181856525,0.22757663314255072,1.4621409575476645,0.9206739004835635,1.78115715123327,0.5459515082862482,1
-0.08098659788060836,-2.33441637417381,-0.8597928947503535,-1.9861699458508237,-0.6032164330348269,-0.7205234653567755,1.062967908052368,1.2175635399956195,1.655832639063129,0.6882297203752473,1.627724961327184,1.2229785419773131,1.8725629500017877,0.5725880025478917,1
-0.09443261103922153,-2.2835117814881856,-1.2396495267934748,-1.9861699458508237,-0.780749933274113,-0.7205234653567755,1.428795454807262,1.2731068713904135,1.0878810463380628,0.534512330486125,1.4415439229311806,1.0214421143148134,1.7660217754631784,0.36027186867590366,1
-0.3108870581611183,-2.4021789813202314,-1.2873632256964362,-2.3255640336003904,-0.8998766467897596,-0.8294687104427885,1.3066945723189514,1.1900615021205088,0.8036282004180968,0.2016243465379167,1.2137649518784217,0.794344968997583,1.5378040506157866,0.2940685431323748,1
-0.17563598462453495,-2.2835117814881856,-0.9070433538581724,-2.204081748709526,-0.4545971836487948,-0.6663165629237647,1.185068790540679,1.2731068713904135,1.2014713648830861,0.5599655346560886,1.7109208266407685,1.1728402111929668,1.7203188760789194,0.665427822353064,1
0.0408184624973618,-2.232607188802576,-0.8361676651964861,-1.6708832375932487,-0.6622015047755452,-0.7752618080097294,0.8197163444958663,1.2731068713904135,1.79823611158057,1.6095358948405951,2.2698678052525665,1.5002140180788448,2.374701299080803,0.7316311478965692,1
-0.24312969773439402,-2.5036576173883054,-1.1446853687826946,-2.3255640336003904,-0.8698058259022955,-0.9389453957486965,0.7707809713585126,0.7198305800207633,0.5476344093556827,0.8674003144343332,1.979893866926495,1.2485392596320437,1.8117246748474374,0.5063846770043628,1
-0.24312969773439402,-2.4699415884666673,-0.9783822823150433,-2.155866989725607,-0.5737238971644414,-0.6934200141402459,0.7707809713585126,0.3326450271909716,0.43404409081065937,0.7905416194897721,2.042088834199771,1.1472794935382362,2.070509923308942,0.6256023843307921,1
-0.2568393582098484,-2.5208461811522773,-0.9547570527611338,-2.1071795370261706,-0.5141605404066444,-0.17579723992675866,1.0387377718387212,0.8303779871657788,1.4003929471155807,0.9951654177187761,2.042088834199771,1.1222103281460631,2.13134819846332,0.5857769463085202,1
-0.2971773976856639,-2.588608788298698,-1.2637379961425268,-2.2527692014089835,-0.7512573974037275,-0.2576390337962422,1.062967908052368,1.2450655778707302,1.5993145293480755,0.7905416194897721,1.6487258593674925,1.0214421143148134,1.7508863996930597,0.3869083629375471,1
-0.3108870581611183,-2.3172278104098383,-1.192399067685656,-1.6467758581012786,-0.30655621927989407,-1.1020975432677684,0.5028241708783042,0.581781135000686,0.9737366286782241,0.8928535186042514,1.8349068977634593,0.9963729489226402,1.9031304736159553,0.6124134405701636,1
0.0002167757047050779,-2.079893410745747,-0.7171150378366118,-1.428391361527059,-0.3360487551502795,-0.6115782202707624,0.7707809713585126,0.9689666878305266,1.3433207382856613,1.1234296034379803,2.166478768746323,1.5508439011257933,2.070509923308942,0.7052532603753359,1
-0.08098659788060836,-2.453083574005841,-0.645776109379741,-2.1071795370261706,-0.9883542544008633,-0.6934200141402459,0.9413421262741172,1.4386583542856506,1.4003929471155807,0.969712213548858,1.814309863147012,1.5759130665179217,1.7508863996930597,0.43992274472044746,1
-0.4458744843808604,-2.8768477806483994,-1.192399067685656,-2.4706810042676643,-1.4631262534121612,-1.074994092051239,0.7465508351448659,1.2175635399956195,1.1726582109107186,0.6627765162052838,1.3377510230011125,0.9457430658757365,1.4312628760771502,0.14821434154432567,1
-0.5676795447588305,-2.7241340025915703,-1.5486304701748255,-2.204081748709526,-1.5521821460403435,-0.966048846965226,0.575989680229283,0.7753739114156063,1.0308088375081434,0.2784830414824779,1.1099720519483167,0.3662029482804551,1.3247217015385406,0.01554908371688147,1
-0.47303015801490395,-2.4699415884666673,-1.3350769245993976,-2.0589647780422515,-1.1664660396572284,-0.6386816714872919,1.014507635625096,0.802875949290717,1.0025497826505914,0.25302983731251427,1.1309729499886618,0.4163412790647566,1.3398570773086322,0.04218557797852491,1
-0.4595841448562908,-2.3849904175562595,-0.8597928947503535,-1.7436780697846554,-0.6327089689051597,-0.6115782202707624,1.5261911003718878,1.0239707635806992,1.2014713648830861,0.6368242296006497,1.3793489556579046,1.0214421143148134,1.5072365270016463,0.14821434154432567,1
-0.37838077127097736,-2.3172278104098383,-0.645776109379741,-1.4770788142264955,-0.5737238971644414,-0.6934200141402459,1.404090217883577,1.1345181707257148,1.513983265660604,1.0206186218887396,1.5865308920942165,1.5257747357336202,1.7357510239229412,0.3737194191769186,1
-0.27028537136846154,-2.181702596116966,-0.7407402673905212,-1.5980884054018423,-0.6327089689051597,-0.3936877300987847,1.453025591020909,1.3561522406603184,1.513983265660604,1.1234296034379803,1.752114895873736,1.5508439011257933,1.8574275742316964,0.47974818274271935,1
-0.4595841448562908,-2.1307980034313565,-0.7648287367396153,-1.4770788142264955,-0.5141605404066444,-0.33894938744578235,1.6967522552874923,1.4111563164105398,1.4569110568306343,1.174336011777862,1.938699797693564,1.1222103281460631,1.8268600506175288,0.2012287233272025,1
-0.27028537136846154,-2.079893410745747,-0.7884539662934826,-1.3555965293356524,-0.6622015047755452,-0.5844747690542812,1.3066945723189514,1.2731068713904135,1.5993145293480755,1.1488828076078985,1.68991992860046,1.1472794935382362,1.8117246748474374,0.2940685431323748,1
-0.3108870581611183,-2.0630353962849353,-0.6934898082827444,-1.3314891498436823,-0.7512573974037275,-0.6386816714872919,1.3066945723189514,1.2450655778707302,1.25798947459819,1.0720241126633374,1.814309863147012,1.4751448526866717,1.7051835003088007,0.3338939811546467,1
-0.6082812315514873,-2.2494652032634024,-0.8120791958473921,-1.7195706902926853,-1.1664660396572284,-0.911310504312272,1.0387377718387212,0.9134233564356836,0.6329656730431541,0.6627765162052838,1.5865308920942165,1.3743766388554666,1.4463982518472687,0.04218557797852491,1
-0.5811255579174437,-2.3681324030954483,-1.2160242972395654,-1.7195706902926853,-1.0774101470290458,-0.966048846965226,1.1361334174033468,0.8578800250408896,1.25798947459819,-0.002999451691132791,0.7372061117325222,0.466971162111705,1.096503976691149,-0.09047967984891929,1
-0.5676795447588305,-2.2663232177242136,-0.7407402673905212,-1.767785449276604,-0.9883542544008633,-0.3936877300987847,1.1361334174033468,1.0239707635806992,0.9737366286782241,0.3298885322570755,1.2343619864948687,0.8700440174366598,1.2487480506140445,-0.07729073608829082,1
-0.4595841448562908,-2.232607188802576,-0.8361676651964861,-1.7436780697846554,-0.8698058259022955,-0.3936877300987847,1.185068790540679,0.8578800250408896,1.229730419740638,0.8674003144343332,1.4621409575476645,0.9457430658757365,1.4161275003070586,0.2012287233272025,1
-0.40553644490504487,-2.4021789813202314,-0.669864578728835,-1.6467758581012786,-0.84031329003191,-0.5844747690542812,1.3313998092426365,0.8578800250408896,1.4003929471155807,1.1234296034379803,1.752114895873736,1.3493074734632935,1.5986423257701643,0.26743204887073135,1
-0.6082812315514873,-2.5377041956130886,-0.6934898082827444,-1.7195706902926853,-1.018425075288275,-0.6663165629237647,1.428795454807262,1.0239707635806992,1.5422423205181057,0.7650884153198084,1.6071279267107004,1.3743766388554666,1.3855599766928912,-0.06410179232766235,1
-0.7569783182466837,-2.5036576173883054,-0.9070433538581724,-1.7436780697846554,-0.8698058259022955,-0.4755295239682682,1.5746513727991382,1.3006089092655244,1.5422423205181057,0.5090591263161613,1.2343619864948687,0.9963729489226402,1.0659364530770086,-0.209955993915735,1
-0.6217272447101004,-2.5208461811522773,-0.8597928947503535,-1.767785449276604,-0.6622015047755452,-0.20290069114328818,1.6478168821501171,1.4666996478053338,1.4569110568306343,0.6627765162052838,1.2549590211113526,0.9708122312679096,1.0659364530770086,-0.05065424182664738,1
-0.5542335316002174,-2.453083574005841,-0.7407402673905212,-1.6949906170851976,-0.6922723256630093,-0.14816234849033416,1.6478168821501171,1.6322511307005219,2.0254167486705663,0.969712213548858,1.4827379921641484,1.1979093765851399,1.2941541779243733,0.08201101600079681,1
-0.47303015801490395,-2.147656017892183,-0.7171150378366118,-1.3555965293356524,-0.5436530762769772,-0.3665842788822552,1.2092989267543257,0.9689666878305266,1.1161401011956147,0.7136829245452109,1.4209468883146967,1.1728402111929668,1.3398570773086322,0.10838890352205376,1
-0.24312969773439402,-1.9275101819920633,-0.3845088649013515,-0.9920950620941372,-0.7217648615333948,-0.5297364264012789,0.8681766169231383,0.3326450271909716,0.2351225085782151,0.5859178212607226,1.5865308920942165,1.5002140180788448,1.4006953524630097,0.22786521758886946,1
-0.41898245806363404,-2.1307980034313565,-0.6934898082827444,-1.428391361527059,-0.6622015047755452,-0.5297364264012789,1.501960964158241,1.2175635399956195,1.2014713648830861,0.2784830414824779,1.1927640538380766,1.1728402111929668,1.2638834263841632,0.05537452173915338,1
-0.4595841448562908,-2.3849904175562595,-0.8597928947503535,-1.5498736464179235,-0.6622015047755452,-0.3665842788822552,1.5504212365855345,1.5497450170752387,0.9454775738206721,0.2784830414824779,0.7788040443893143,0.9963729489226402,0.913692379154113,-0.07729073608829082,1
-0.5001858316489475,-2.3849904175562595,-0.6934898082827444,-1.4529714347345466,-0.7217648615333948,-0.09395544605727515,1.428795454807262,1.2450655778707302,1.0308088375081434,0.2016243465379167,0.8409990116625903,1.09714116275389,0.7614483052312175,-0.03746529806601891,1
-0.4458744843808604,-2.147656017892183,-0.5035614922611837,-1.3555965293356524,-0.8998766467897596,-0.2300041423598177,1.453025591020909,0.8859213185606218,1.2868026285705574,0.09931244742339196,0.8821930808955579,1.09714116275389,0.7311775536910075,0.05537452173915338,1
-0.10787862419783469,-1.7410803750135964,-0.24229424778275227,-0.8951928504107605,-0.6032164330348269,-0.28474248501277166,1.428795454807262,0.9409253943107944,1.2014713648830861,0.35534173642703903,0.9649850827852811,1.2736084250242168,1.0202335536927496,0.3869083629375471,1
0.2841649359364849,-1.571508582495941,-0.07599116131510109,-0.6768083538365409,-0.12844443402352915,0.06972814168169186,1.453025591020909,1.1900615021205088,1.1161401011956147,0.5859178212607226,1.3171539883846286,1.6516121149569984,1.4615336276173874,0.811282023941113,1
1.122299756156346,-1.1136977976285993,0.874576898382945,-0.07081501052885733,-0.4545971836487948,-0.2576390337962422,1.3556299454562832,0.9964687257055884,0.6900378818731239,0.8928535186042514,2.2904648398690504,2.5590175917007603,2.161618950003557,1.474349706337924,1
1.054806043046463,-1.2832695901462547,0.6841853425662419,-0.43478917148589,-0.6922723256630093,-0.33894938744578235,1.453025591020909,0.6092831728757967,0.8318872552756488,0.5859178212607226,2.0836867668566,2.4081110470852085,1.9639687487703328,1.434524268315652,1
1.419693929546715,-0.8254588052789131,0.7082738119152938,-0.31330688659504713,-0.7217648615333948,-0.3118459362293012,0.7707809713585126,0.9964687257055884,0.8601463101332008,0.2016243465379167,1.7727119304901833,2.256712950207055,2.070509923308942,1.7660581095140457,1
1.5008973031320283,-1.0459351904821783,0.6605601130123324,-0.3619943392944835,-0.7512573974037275,-0.14816234849033416,1.014507635625096,0.4156903964608764,0.46230314566821135,0.15071793819798956,1.8349068977634593,2.0045466394976517,1.948536600926284,1.6336514584270116,1
1.4468496031807585,-0.8595053835036963,0.7555242710231127,-0.33788695980251326,-0.4545971836487948,-0.17579723992675866,1.1361334174033468,0.36014706506608235,0.8889594641055681,0.25302983731251427,1.6693228939839764,1.7273111633960752,1.7660217754631784,1.5671895261430964,1
1.6767500634612684,-0.4866457695467627,1.2071830713182474,0.38958866839605616,-0.3360487551502795,-0.5573713178377517,1.1119032811897,0.6923285421457015,0.8318872552756488,0.12526473402807137,1.8349068977634593,2.1053148533289017,1.9182658493860738,1.8325200417979848,1
1.8660488369491215,-0.5375503622323724,1.563414473807417,0.6075004712547368,-0.6327089689051597,-0.966048846965226,1.3066945723189514,0.581781135000686,-0.19097971074432624,-0.2076232499201369,2.021491799583324,2.5840867570929333,1.9942395003105429,1.9915631871466624,1
1.7442437765711274,-0.7408381836716657,1.2071830713182474,0.12298941283789615,-0.6327089689051597,-0.6663165629237647,1.5746513727991382,0.3051429893158608,-0.5323047654942117,-0.3867938439792228,1.68991992860046,2.5088792609164585,1.8117246748474374,1.8457089855585895,1
1.595546689875955,-0.757696198132477,0.7796127403721647,-0.09539508373632348,-0.2175003266517116,-0.12105889727380467,1.5746513727991382,0.36014706506608235,0.17860439886311114,-0.4381993347538204,1.3587519210414207,2.0802456879367286,1.7051835003088007,1.6468404021876402,1
1.4602956163393717,-1.0122191615605405,0.5892211845554616,-0.3619943392944835,-0.5436530762769772,-0.039217103404321156,1.4772557272345557,0.581781135000686,0.6329656730431541,-0.4381993347538204,1.5037388902044566,1.803010211835152,1.7051835003088007,1.474349706337924,1
1.3250445428027884,-1.3001276046070662,0.06668669559864064,-0.8710854709187903,-0.9883542544008633,-0.20290069114328818,1.404090217883577,0.6367852107508585,0.5193753544981812,-0.1307645549755757,1.5449329594374244,1.7774494941804215,1.7965892990773187,1.5141751443601958,1
1.4602956163393717,-0.9950305977965685,0.09031192515250797,-0.6527009743445708,-0.3661195760376911,-0.12105889727380467,1.2824644361053046,0.6367852107508585,0.5758934642132347,0.048406039083510204,1.5243359248209405,2.0296158048898247,1.8876983257719064,1.726491278232184,1
1.6767500634612684,-0.7067916054468673,0.6841853425662419,-0.09539508373632348,0.16821577973140367,0.1786733867677049,1.3556299454562832,0.6648265042705908,0.6900378818731239,-0.02845265586105097,1.7109208266407685,2.281782115599228,1.8117246748474374,1.7926946037757128,1
1.608992703034568,-0.8763633979645228,0.42291809808781033,-0.33788695980251326,-0.30655621927989407,0.23341172942065888,1.501960964158241,0.6092831728757967,0.6329656730431541,0.12526473402807137,1.7315178612572524,2.231643784814882,1.6900481245386823,1.5408116386218393,1
1.5008973031320283,-1.0122191615605405,0.1857393229584729,-0.8465053977113242,-0.6622015047755452,-0.2300041423598177,1.428795454807262,0.3881883585857656,0.20686345372066312,0.22757663314255072,1.7109208266407685,2.1053148533289017,1.6900481245386823,1.301859010488208,1
1.419693929546715,-1.0968397831677879,-0.14686684997682947,-0.7982906387273838,-0.6622015047755452,-0.012113652187791648,1.185068790540679,-0.2206312641786787,-0.2480519195742456,-0.23307645409010047,1.3587519210414207,1.2736084250242168,1.6900481245386823,1.3153065609892465,1
0.9870486826197626,-1.4187948044391119,-0.5749004207180547,-1.5252935732104143,-0.8998766467897596,0.23341172942065888,1.37986008166993,-0.08204256351397989,-0.30457002928934956,-0.5145589472637111,0.8821930808955579,0.8700440174366598,1.2638834263841632,0.8642964057240135,1
0.9467106431439232,-1.5546505680351297,-0.6934898082827444,-1.6467758581012786,-0.9293691826600925,0.4513022195926849,1.501960964158241,0.166554288651162,0.03620092634572042,-0.6173699288129063,0.9443880481688339,0.9457430658757365,1.2181805269999042,0.9571362255291858,1
1.122299756156346,-1.3341741828318645,-0.31316993644448066,-1.3073817703517336,-0.6622015047755452,0.31472208307019905,1.5261911003718878,0.6923285421457015,0.9172185189631201,-0.1307645549755757,1.2965569537681447,1.2229785419773131,1.4006953524630097,1.1428158651395304,1
1.3928019032294885,-0.8935519617284947,0.09031192515250797,-0.6768083538365409,-0.24699286252209704,0.26051518063718837,1.3066945723189514,-0.08204256351397989,0.43404409081065937,0.4576536355415638,1.876504830420288,1.7273111633960752,1.7660217754631784,1.474349706337924,1
1.2035031297416594,-1.1308863613925713,0.11440039450160204,-0.9438803031101969,-0.48466800453625897,-0.12105889727380467,1.1608386543270321,-0.16508793278388467,0.5193753544981812,0.4576536355415638,1.8559077958038044,1.6766812803491715,1.7203188760789194,1.301859010488208,1
1.0954077298391196,-1.317316168371053,-0.05190269196604915,-1.3555965293356524,-0.8998766467897596,-0.3118459362293012,0.8924067531367635,-0.2206312641786787,0.17860439886311114,-0.10531135080565754,1.5449329594374244,1.6516121149569984,1.4463982518472687,1.1826413031618022,1
1.2035031297416594,-1.1814604047750354,-0.004652232858230225,-1.4042839820350888,-0.9883542544008633,-0.17579723992675866,1.0876731449760748,0.3881883585857656,0.46230314566821135,-0.02845265586105097,1.3999459902743885,1.7523803287882482,1.3704246009227996,1.2356556849446791,1
1.1900571165830462,-1.2155069829998186,0.04306146604473118,-1.2832743908597635,-0.8108207541615772,-0.06685199484074565,1.4772557272345557,0.9134233564356836,0.8036282004180968,0.25302983731251427,1.4621409575476645,1.6516121149569984,1.4161275003070586,1.1826413031618022,1
1.1088537429977328,-1.249553561224617,0.04306146604473118,-1.428391361527059,-0.8698058259022955,-0.06685199484074565,1.2824644361053046,0.5537398414809537,0.2351225085782151,-0.1821700457502187,1.4621409575476645,1.5002140180788448,1.4312628760771502,1.0766125395960016,1
1.0954077298391196,-1.1814604047750354,0.06668669559864064,-1.428391361527059,-1.0479176111586603,-0.2576390337962422,0.9902774994114492,0.3326450271909716,-0.13446160102922228,-0.5145589472637111,1.3793489556579046,1.5002140180788448,1.3704246009227996,1.1826413031618022,1
1.122299756156346,-1.2155069829998186,0.04306146604473118,-1.1376847264769503,-0.8698058259022955,-0.2576390337962422,1.185068790540679,0.747332617895874,0.348712827123188,-0.23307645409010047,1.3587519210414207,1.6009822319100948,1.2333159027699956,1.2356556849446791,1
1.122299756156346,-1.1986489685390074,-0.004652232858230225,-1.0407825147935736,-0.3956121119080765,0.014989799028737861,1.428795454807262,0.8303779871657788,0.32045377226568644,0.07385924325342838,1.4415439229311806,1.7273111633960752,1.3247217015385406,1.1958302469224071,1
1.054806043046463,-1.0627932049429896,0.019436236490821712,-1.1617921059689205,-0.30655621927989407,0.1786733867677049,1.404090217883577,0.4712337278556704,0.03620092634572042,0.2016243465379167,1.5659338574777326,1.7523803287882482,1.5835069500000456,1.301859010488208,1
0.892399295875836,-1.232364997460645,-0.028277462412139687,-1.3314891498436823,-0.5141605404066444,0.31472208307019905,1.5261911003718878,0.747332617895874,0.8889594641055681,0.38079494059700264,1.6071279267107004,1.6009822319100948,1.5378040506157866,1.2754811229669745,1
0.7437022091806396,-1.50374597534952,-0.14686684997682947,-1.5498736464179235,-0.6327089689051597,0.5331440134621684,1.8183780370657214,1.3561522406603184,1.7411639027506003,0.5859178212607226,1.6071279267107004,1.5002140180788448,1.4769657754614092,0.9703251692898142,1
0.770857882814707,-1.385078775517474,-0.1709553193258814,-1.5252935732104143,-0.5436530762769772,0.5055091220256956,2.013169328194973,1.3561522406603184,1.4003929471155807,0.6882297203752473,1.6487258593674925,1.6009822319100948,1.6443452251544233,0.9571362255291858,1
0.9601566563025363,-1.1308863613925713,0.019436236490821712,-1.088997273777514,-0.48466800453625897,0.3694604257232014,1.915773682630347,1.05147280145581,0.9454775738206721,0.7136829245452109,1.6487258593674925,1.8531485426194982,1.6292098493843046,1.1826413031618022,1
1.0682520562050761,-1.0968397831677879,0.28070348096925324,-0.967987682602167,-0.5436530762769772,0.23341172942065888,1.6725221190738455,1.0239707635806992,1.1726582109107186,0.6882297203752473,1.5865308920942165,2.0045466394976517,1.4161275003070586,1.1164379776182733,1
0.9061089563512664,-1.3678902117535023,0.1857393229584729,-1.3314891498436823,-0.7512573974037275,-0.06685199484074565,1.5993566097228666,1.1070161328506039,1.0308088375081434,0.4576536355415638,1.4621409575476645,1.62654294956487,1.2487480506140445,0.8909328999856568,1
0.6221607961195106,-1.6561292041032034,-0.14686684997682947,-1.622195784893791,-0.84031329003191,-0.14816234849033416,1.5261911003718878,0.8303779871657788,0.32045377226568644,0.12526473402807137,1.1721670192215927,1.3237467558085183,1.0810718288471273,0.7846455296794697,1
0.5275114093755839,-1.5546505680351297,-0.19458054887979087,-1.5980884054018423,-0.8108207541615772,0.04262469046516236,1.428795454807262,0.8578800250408896,0.29219471740813446,-0.053905860031014545,0.985985980825626,1.399445804247595,0.9899628021525124,0.6920643166147074,1
0.6490528224367129,-1.2155069829998186,0.04306146604473118,-1.3073817703517336,-0.5436530762769772,0.06972814168169186,1.5261911003718878,1.383654278535429,1.371579793143163,0.15071793819798956,1.2759599191516977,1.5002140180788448,1.1573422518455265,0.7184422041359408,1
0.6221607961195106,-1.4019367899783006,0.019436236490821712,-1.3801766025431401,-0.4545971836487948,0.3694604257232014,1.915773682630347,1.3006089092655244,0.7182969367306254,0.2784830414824779,1.1099720519483167,1.1222103281460631,1.1876130033857366,0.8379185182027801,1
0.6356068092781237,-1.3001276046070662,0.019436236490821712,-1.3801766025431401,-0.6032164330348269,0.5602474646786979,1.988939191981326,1.2450655778707302,0.3775259810956058,-0.2844819448646981,1.027180050058557,1.1728402111929668,1.142206876075408,0.8909328999856568,1
0.9870486826197626,-0.8086007908180867,0.3756676389800335,-0.822398018219354,-0.42510464777846196,0.26051518063718837,1.8673134102030968,1.1070161328506039,1.1161401011956147,0.07385924325342838,1.5037388902044566,1.7273111633960752,1.3855599766928912,1.2224667411840742,1
1.244104816534316,-0.6390289983004313,0.850488429033893,-0.5799061421531642,-0.03938854139534668,0.20577683798423438,1.5993566097228666,0.747332617895874,1.0590678923656953,0.5859178212607226,1.8559077958038044,2.1303840187210747,1.6292098493843046,1.3153065609892465,1
1.122299756156346,-0.8763633979645228,0.8032379699260741,-0.7741832592354566,-0.03938854139534668,0.3694604257232014,1.5261911003718878,0.6367852107508585,0.3775259810956058,0.4322004313716002,1.7109208266407685,1.9037784256664019,1.5680748021560238,1.0766125395960016,1
0.9601566563025363,-1.0122191615605405,0.32795394007703,-0.7982906387273838,-0.3661195760376911,0.3965638769396826,1.7699177646384712,0.9134233564356836,0.7182969367306254,0.40674722720163664,1.6071279267107004,1.6766812803491715,1.5072365270016463,1.1164379776182733,1
0.9601566563025363,-0.9781725833357422,0.06668669559864064,-0.8465053977113242,-0.30655621927989407,0.5873509158951791,1.8915435464167003,1.1345181707257148,1.25798947459819,0.6368242296006497,1.6487258593674925,1.803010211835152,1.4921011512315276,1.1296269213789019,1
0.8249055827659529,-1.1308863613925713,0.019436236490821712,-1.0162024415861075,0.07915988710322121,0.8328762975036297,1.7209823915010958,1.1070161328506039,0.7748150464457294,0.25302983731251427,1.3793489556579046,1.62654294956487,1.1573422518455265,0.7846455296794697,1
0.8114595696073638,-0.6390289983004313,-0.07599116131510109,-0.555798762661194,0.10865242297360664,0.4513022195926849,1.404090217883577,0.7753739114156063,0.8318872552756488,-0.4122470481491864,1.0065830154421098,0.9206739004835635,0.8679894797698541,0.7184422041359408,1
0.9736026694611495,-0.4697877550859363,-0.004652232858230225,-0.555798762661194,0.04908906621580962,0.12393504411475088,1.2824644361053046,0.802875949290717,1.3150616834281095,0.07385924325342838,1.1927640538380766,1.1728402111929668,0.9442599027682534,0.7582676421582362,1
0.7437022091806396,-0.9781725833357422,-0.004652232858230225,-1.1135773469849801,-0.5737238971644414,0.4784056708091661,1.6725221190738455,1.6322511307005219,1.25798947459819,0.4576536355415638,1.4209468883146967,1.2986775904163899,1.1267747282313862,0.8909328999856568,1
0.8114595696073638,-0.6562175620644182,0.04306146604473118,-0.7496031860279474,-0.24699286252209704,0.1786733867677049,1.5261911003718878,0.8303779871657788,0.7465559915881774,0.2016243465379167,1.3377510230011125,1.2736084250242168,1.05080107730689,0.877485349484642,1
0.8249055827659529,-0.503503784007574,0.09031192515250797,-0.5799061421531642,-0.12844443402352915,-0.12105889727380467,1.1361334174033468,-0.30313737780396194,-0.5605638203517637,-0.23307645409010047,1.0687779827153858,1.2986775904163899,0.883421627613876,0.7980930801805082,1
0.770857882814707,-0.774884761896449,-0.028277462412139687,-0.967987682602167,-0.30655621927989407,0.1786733867677049,1.2582342998916578,-0.16508793278388467,-0.5888228752092652,-0.4122470481491864,0.861596046279074,1.2736084250242168,0.6397717549224625,0.7184422041359408,1
0.8249055827659529,-1.0968397831677879,-0.1709553193258814,-1.2104795586683568,-0.48466800453625897,0.42419876837615544,1.7209823915010958,0.6923285421457015,0.3775259810956058,-0.3867938439792228,0.8409990116625903,1.2229785419773131,0.5940688555382035,0.7714565859188411,1
0.9467106431439232,-0.8763633979645228,0.09031192515250797,-0.967987682602167,-0.5436530762769772,0.2876186318537179,1.6967522552874923,0.9409253943107944,0.46230314566821135,-0.463652538923784,0.861596046279074,1.1728402111929668,0.792015828845358,0.9173107875069139,1
1.122299756156346,-0.3002159625682808,0.5892211845554616,-0.6768083538365409,-0.24699286252209704,0.26051518063718837,1.404090217883577,0.8303779871657788,0.49111629964062914,-0.30993514903466163,0.9649850827852811,1.1728402111929668,0.837718728229617,1.0766125395960016,1
1.4468496031807585,-0.06288156290420428,0.8032379699260741,-0.38610171878645366,0.07915988710322121,0.42419876837615544,1.5261911003718878,0.9689666878305266,1.3433207382856613,0.048406039083510204,1.3171539883846286,1.5002140180788448,0.9745306543084906,1.3946988302933803,1
1.6767500634612684,-0.09659759182584207,0.850488429033893,-0.2164046749116704,-0.009896005524961247,0.31472208307019905,1.5993566097228666,1.1070161328506039,1.4857242108030522,0.3044353280871119,1.7109208266407685,1.953916756450748,1.3549924530787507,1.5671895261430964,1
1.5414989899246851,-0.028834984679421007,0.7082738119152938,-0.1922972954197002,-0.03938854139534668,0.23341172942065888,1.2582342998916578,0.6923285421457015,0.5193753544981812,0.17617114236795312,1.5037388902044566,1.6766812803491715,1.2487480506140445,1.2092777974234457,1
1.3115985296441752,-0.06288156290420428,0.47063179699077173,-0.1922972954197002,0.04908906621580962,0.5873509158951791,1.37986008166993,0.3881883585857656,0.12153219003319177,-0.36134063980925923,0.985985980825626,1.09714116275389,0.792015828845358,0.9571362255291858,1
1.5414989899246851,-0.2661693843434975,0.6841853425662419,-0.5316913831692668,-0.12844443402352915,0.12393504411475088,1.5261911003718878,0.6092831728757967,0.7465559915881774,0.15071793819798956,1.4621409575476645,1.8280793772273252,1.1573422518455265,1.4213353245550235,1
1.3387542032782427,-0.18154876273625006,0.5419707254476426,-0.26509212761110673,-0.4545971836487948,0.2876186318537179,1.6235867459365134,0.49873576573078116,0.2351225085782151,-0.1821700457502187,1.2137649518784217,1.2986775904163899,0.8679894797698541,1.0631649890949866,1
1.2709968428515184,-0.19840677719706143,0.4470065674369044,-0.6768083538365409,-0.5141605404066444,0.5602474646786979,1.6478168821501171,0.6367852107508585,0.5193753544981812,-0.10531135080565754,1.4209468883146967,1.3493074734632935,0.9745306543084906,1.1958302469224071,1
1.7307977634125382,0.10669022961345118,0.9459158268398158,0.19578424502930267,0.04908906621580962,0.5873509158951791,1.5504212365855345,1.1345181707257148,1.371579793143163,0.5599655346560886,1.6071279267107004,2.1810139017679786,1.3855599766928912,1.5803784699037247,1
1.528052976766072,-0.0119769702185946,0.850488429033893,-0.07081501052885733,-0.0989518981531437,0.5602474646786979,1.5261911003718878,1.0239707635806992,0.6900378818731239,0.02245375247883078,1.1515699846051457,1.803010211835152,1.142206876075408,1.262292179206346,1
1.1900571165830462,-0.4697877550859363,0.636934883458423,-0.4830039304697874,-0.48466800453625897,0.3965638769396826,1.428795454807262,0.6923285421457015,0.29219471740813446,-0.6428231329828699,0.2404541003939999,1.3237467558085183,0.6854746543067215,0.9837727197908291,1
1.0954077298391196,-0.588454954917982,0.5419707254476426,-0.3619943392944835,-0.5436530762769772,0.15156993555117537,1.3066945723189514,0.36014706506608235,0.348712827123188,-0.6428231329828699,-0.31889674164165954,1.1979093765851399,0.4421215536892383,0.8909328999856568,1
0.9330009826684927,-0.5375503622323724,0.019436236490821712,-0.4588965509778602,-0.18800779078132618,0.6691927097646626,1.5261911003718878,1.1070161328506039,1.1443991560531668,0.09931244742339196,-0.2982997070251757,1.0214421143148134,0.5789334797681119,0.6522388785924355,1
0.9195549695098796,-0.8086007908180867,-0.028277462412139687,-0.9438803031101969,-0.42510464777846196,0.8052414060672052,1.5746513727991382,0.8859213185606218,1.1726582109107186,-0.002999451691132791,-0.4016887435313827,1.1472794935382362,0.38098650646095744,0.6920643166147074,1
0.7574118696560939,-0.588454954917982,-0.028277462412139687,-0.6768083538365409,-0.2770636834095086,0.723931052417665,1.8915435464167003,1.3561522406603184,1.1726582109107186,0.17617114236795312,-0.5054816434614876,1.1728402111929668,0.5029598288436158,0.7316311478965692,1
0.6762084960707805,-0.6899335909860559,-0.004652232858230225,-0.7982906387273838,-0.3956121119080765,0.6962961609811922,1.8915435464167003,1.2175635399956195,0.5758934642132347,-0.053905860031014545,-0.5054816434614876,1.3493074734632935,0.5789334797681119,0.6522388785924355,1
0.7302561960220264,-0.8254588052789131,0.019436236490821712,-0.7982906387273838,-0.8108207541615772,0.04262469046516236,1.453025591020909,0.747332617895874,0.7465559915881774,-0.5405112338683451,-0.8366496510204902,0.9708122312679096,0.3964186543049793,0.6387913280913969,1
0.7437022091806396,-0.757696198132477,0.1380256240555115,-0.7496031860279474,-0.48466800453625897,0.26051518063718837,1.4772557272345557,1.3281109471406352,1.2014713648830861,-0.10531135080565754,-0.7954555817875225,1.1472794935382362,0.4723923052294754,0.665427822353064,1
0.7437022091806396,-0.8763633979645228,0.1380256240555115,-0.7741832592354566,-0.6327089689051597,0.23341172942065888,1.404090217883577,1.2175635399956195,1.0590678923656953,-0.2590287406947799,-0.7332606145142465,1.1222103281460631,0.5029598288436158,0.6786167661136688,1
0.7168101828634372,-0.8595053835036963,-0.004652232858230225,-0.8465053977113242,-0.8998766467897596,-0.09395544605727515,1.1361334174033468,0.6923285421457015,0.26338156343571667,-0.6682763371528334,-0.9194416529102499,0.7692758036054099,0.2744453319223209,0.5857769463085202,1
0.7977499091319095,-0.6562175620644182,0.06668669559864064,-0.6768083538365409,-0.6327089689051597,-0.17579723992675866,0.9902774994114492,0.3051429893158608,-0.049130337341750936,-0.7196818279274311,-0.8782475836772823,0.8956047350913903,0.28987747976634276,0.6522388785924355,1
0.9870486826197626,-0.5544083766931838,0.20936455251238237,-0.31330688659504713,-0.42510464777846196,-0.14816234849033416,1.0876731449760748,0.19459558217084527,0.29219471740813446,-0.36134063980925923,-0.6088706799676945,1.2485392596320437,0.5029598288436158,0.7316311478965692,1
0.6490528224367129,-0.8086007908180867,-0.07599116131510109,-0.8465053977113242,-0.9293691826600925,-0.20290069114328818,0.8681766169231383,0.3326450271909716,0.32045377226568644,-0.4381993347538204,-1.0022336548000097,0.7692758036054099,0.25930995615220237,0.3737194191769186,1
0.6221607961195106,-0.7239801692108392,-0.05190269196604915,-0.70138842704405,-0.8108207541615772,-0.20290069114328818,1.185068790540679,0.581781135000686,0.32045377226568644,-0.7196818279274311,-1.043831587456802,0.6434384243820316,0.24417458038208378,0.43992274472044746,1
0.7843038959732963,-0.6221709838396199,0.019436236490821712,-0.4588965509778602,-0.7217648615333948,-0.3118459362293012,1.428795454807262,0.6092831728757967,0.007941871488168441,-0.8474469312119194,-1.0644286220732857,0.6935767551663331,0.18333630522773323,0.4665592389820909,1
0.7168101828634372,-0.6730755765252295,0.019436236490821712,-0.6768083538365409,-0.9293691826600925,-0.17579723992675866,1.6235867459365134,0.6367852107508585,0.03620092634572042,-0.9757111169310781,-1.3132084911663897,0.6935767551663331,0.07679513068909669,0.3470829249152752,1
0.5275114093755839,-0.842647369042885,-0.028277462412139687,-0.8465053977113242,-0.958861718530478,0.23341172942065888,1.915773682630347,0.8859213185606218,0.6329656730431541,-1.0520707294409235,-1.6443764987253924,0.6935767551663331,0.031092231304837712,0.26743204887073135,1
0.4597540489488837,-0.8595053835036963,-0.07599116131510109,-0.7254958065359772,-0.780749933274113,0.12393504411475088,1.794147900852118,1.3006089092655244,1.25798947459819,-0.463652538923784,-1.5199865641788404,0.794344968997583,0.07679513068909669,0.3869083629375471,1
0.5815591093268538,-0.7239801692108392,-0.004652232858230225,-0.70138842704405,-0.6327089689051597,-0.14816234849033416,1.501960964158241,1.5497450170752387,1.4286520019731328,0.09931244742339196,-1.0644286220732857,1.0214421143148134,0.2744453319223209,0.6124134405701636,1
0.5409574225341971,-1.0290771760213517,0.20936455251238237,-0.70138842704405,-0.6032164330348269,0.4513022195926849,1.8183780370657214,0.5537398414809537,0.26338156343571667,-0.7451350320973946,-1.3132084911663897,0.8956047350913903,0.07679513068909669,0.2542431051101029,1
0.5275114093755839,-0.9613145688749157,0.28070348096925324,-0.6044862153606733,-0.5436530762769772,0.12393504411475088,1.6478168821501171,0.4156903964608764,0.4057850359531578,-0.8988524219865169,-1.4993895295623565,0.7692758036054099,-0.06031356746368024,0.36027186867590366,1
0.5140653962169708,-0.7239801692108392,0.11440039450160204,-0.41020909827838087,-0.3360487551502795,0.20577683798423438,1.501960964158241,0.3881883585857656,0.32045377226568644,-0.7705882362673582,-1.2510135238931137,0.9457430658757365,0.12249803007335566,0.5327625645256198,1
0.4734637094243141,-0.7067916054468673,-0.07599116131510109,-0.43478917148589,-0.12844443402352915,0.3965638769396826,1.404090217883577,0.44319243433598715,0.5476344093556827,-0.5659644380383088,-1.0854295201135942,1.0214421143148134,0.33558037915060174,0.4665592389820909,1
0.4057063489976138,-0.8763633979645228,-0.12324162042292001,-0.7254958065359772,-0.24699286252209704,0.04262469046516236,1.2582342998916578,0.802875949290717,0.8601463101332008,-0.3353883532046252,-1.106026554730078,0.9206739004835635,0.33558037915060174,0.3737194191769186,1
0.33821263588773076,-0.8595053835036963,-0.14686684997682947,-0.7982906387273838,-0.6032164330348269,-0.2576390337962422,1.1361334174033468,0.747332617895874,0.46230314566821135,-0.5405112338683451,-1.209415591236285,0.8956047350913903,0.25930995615220237,0.3338939811546467,1
0.2976109490950741,-0.8763633979645228,-0.05190269196604915,-0.7982906387273838,-0.8108207541615772,-0.20290069114328818,1.0876731449760748,0.4712337278556704,0.17860439886311114,-0.9243056261564806,-1.3960004930561496,0.8449748520444866,0.18333630522773323,0.2542431051101029,1
0.4057063489976138,-1.0290771760213517,-0.004652232858230225,-0.9193002299027307,-0.6922723256630093,-0.20290069114328818,1.185068790540679,0.5537398414809537,0.5193753544981812,-0.9243056261564806,-1.4371945622890805,0.6935767551663331,0.07679513068909669,0.2542431051101029,1
0.48690972258292725,-0.9613145688749157,-0.36088363534744206,-1.0162024415861075,-0.6622015047755452,0.15156993555117537,1.3556299454562832,0.8859213185606218,0.8601463101332008,-0.48910574309374755,-1.271610558509561,0.5928085413350832,0.10706588222930684,0.2940685431323748,1
0.36510466220495713,-0.8254588052789131,-0.8361676651964861,-1.2586943176522758,-0.6327089689051597,0.5602474646786979,1.5993566097228666,1.2175635399956195,1.0025497826505914,-0.1821700457502187,-1.1888185566198377,0.49204032750383336,0.30501285553646135,0.32070503739404177,1
0.4057063489976138,-0.9441260051109438,-0.7407402673905212,-1.3555965293356524,-0.3956121119080765,0.31472208307019905,1.6478168821501171,1.3006089092655244,1.2014713648830861,-0.2076232499201369,-1.1682215220033538,0.5171094928960065,0.3964186543049793,0.41354485719919054,1
0.595005122485467,-0.9950305977965685,-0.31316993644448066,-1.2104795586683568,-0.6922723256630093,-0.2576390337962422,1.1608386543270321,0.8578800250408896,0.9737366286782241,-0.2844819448646981,-1.147220623963009,0.6178777067272564,0.30501285553646135,0.41354485719919054,1
0.5140653962169708,-1.0290771760213517,-0.4322225638043129,-1.4529714347345466,-1.2555219322854108,-0.6386816714872919,0.6491551895802619,0.3326450271909716,0.6047066181856525,-0.5145589472637111,-1.4581954603294256,0.4163412790647566,0.12249803007335566,0.22786521758886946,1
0.21640757550976064,-1.1136977976285993,-0.6934898082827444,-1.6708832375932487,-0.9883542544008633,-0.6386816714872919,0.6491551895802619,0.2776409514407501,0.5476344093556827,-0.5145589472637111,-1.6859744313821845,0.1897356860101284,-0.02974604384953984,0.08201101600079681,1
0.1354678492412884,-0.9272679906501324,-1.0260959812180046,-1.5011861937184656,-0.42510464777846196,-0.33894938744578235,0.9171119900604704,0.49873576573078116,0.6612247279007061,-0.2844819448646981,-1.5409874622191486,0.16417496835539788,0.015956855534719136,0.06856346549978184,1
0.09486616244863168,-0.8763633979645228,-1.3109884552503457,-1.622195784893791,-0.6032164330348269,-0.17579723992675866,0.8681766169231383,0.6648265042705908,0.6900378818731239,-0.2844819448646981,-1.4165975276725966,0.1897356860101284,0.15276878161356583,0.13502539778369718,1
0.0002167757047050779,-1.232364997460645,-1.049721210771914,-1.8646876609599807,-0.7512573974037275,-0.17579723992675866,0.8197163444958663,0.802875949290717,0.5476344093556827,-0.3867938439792228,-1.271610558509561,0.3155730652335514,0.1679041573836844,0.2012287233272025,1
0.16235987555849074,-1.3341741828318645,-0.7171150378366118,-1.5980884054018423,-0.5141605404066444,-0.039217103404321156,1.014507635625096,0.8859213185606218,0.5193753544981812,-0.3867938439792228,-1.106026554730078,0.6434384243820316,0.07679513068909669,0.22786521758886946,1
0.3788143226803875,-1.0459351904821783,-0.4558477933582224,-1.428391361527059,-0.6327089689051597,-0.012113652187791648,0.9902774994114492,0.7198305800207633,0.5193753544981812,-0.3867938439792228,-1.147220623963009,0.9206739004835635,0.10706588222930684,0.3869083629375471,1
0.351658649046344,-0.9441260051109438,-0.1709553193258814,-1.5011861937184656,-0.6922723256630093,-0.2576390337962422,0.9655722624877423,0.8303779871657788,0.9737366286782241,-0.23307645409010047,-0.9816366201835259,1.1728402111929668,0.3201482313065799,0.5327625645256198,1
0.21640757550976064,-1.0122191615605405,-0.2895447068905712,-1.5011861937184656,-0.5737238971644414,0.014989799028737861,1.3066945723189514,1.5497450170752387,1.684091693920681,0.22757663314255072,-0.5882736453512474,1.2986775904163899,0.5029598288436158,0.40009730669817556,1
0.20296156235114746,-0.8254588052789131,-0.1709553193258814,-1.4529714347345466,-0.6622015047755452,-0.012113652187791648,1.6235867459365134,1.6047490928254602,1.3433207382856613,0.4576536355415638,-0.8366496510204902,1.1472794935382362,0.4572569294593568,0.40009730669817556,1
0.25700926230241733,-1.0459351904821783,0.019436236490821712,-1.6467758581012786,-0.6327089689051597,-0.06685199484074565,1.5261911003718878,1.383654278535429,1.0308088375081434,0.17617114236795312,-0.8572466856369739,1.09714116275389,0.4421215536892383,0.5063846770043628,1
0.2841649359364849,-1.2155069829998186,-0.2659194773366617,-1.7436780697846554,-0.5436530762769772,0.1786733867677049,1.6725221190738455,1.4111563164105398,0.7465559915881774,-0.1821700457502187,-0.8782475836772823,1.1222103281460631,0.41155403007509783,0.5063846770043628,1
0.24356324914382815,-1.0799817687069615,-0.645776109379741,-1.5252935732104143,-0.42510464777846196,-0.17579723992675866,1.3313998092426365,0.581781135000686,-0.30457002928934956,-0.6173699288129063,-1.5615844968356325,0.466971162111705,0.13763340584347425,0.18803977956659756,1
0.1354678492412884,-1.1477443758533976,-0.8120791958473921,-1.5011861937184656,-0.6622015047755452,-0.33894938744578235,1.185068790540679,0.4712337278556704,-0.13446160102922228,-1.0520707294409235,-1.7687664332719444,0.466971162111705,-0.19712549354255393,-0.07729073608829082,1
0.27045527546103054,-0.6730755765252295,-0.4558477933582224,-1.4770788142264955,-0.2770636834095086,-0.06685199484074565,1.6235867459365134,0.9409253943107944,0.7465559915881774,-0.1307645549755757,-1.106026554730078,0.8199056866523136,0.4266894058452164,0.4531116884810759,1
0.2841649359364849,-0.8763633979645228,-0.12324162042292001,-1.5011861937184656,-0.6922723256630093,0.1786733867677049,1.8183780370657214,1.2731068713904135,0.9454775738206721,0.12526473402807137,-0.9816366201835259,0.9708122312679096,0.4723923052294754,0.3737194191769186,1
0.10831217560724485,-1.1308863613925713,-0.028277462412139687,-1.5252935732104143,-0.8998766467897596,0.04262469046516236,1.5993566097228666,1.3561522406603184,0.9172185189631201,-0.30993514903466163,-1.2922075931260446,0.794344968997583,0.24417458038208378,0.13502539778369718,1
0.3247666227291416,-0.7239801692108392,0.04306146604473118,-1.5252935732104143,-0.6327089689051597,0.06972814168169186,1.404090217883577,1.4942016856804448,1.4003929471155807,0.5090591263161613,-0.6710656472409705,1.2736084250242168,0.6095010033822523,0.6387913280913969,1
-0.18908199778314813,-1.2155069829998186,-0.7648287367396153,-2.010277325342794,-0.6327089689051597,-0.28474248501277166,1.2582342998916578,0.747332617895874,0.8318872552756488,-0.10531135080565754,-1.1888185566198377,0.5677393759429549,-0.044881419619658414,-0.05065424182664738,1
-0.3649347581123882,-1.2832695901462547,-1.1687738381317463,-2.1312869165181194,-0.84031329003191,-0.6115782202707624,1.1361334174033468,0.49873576573078116,0.0644599812032724,-0.4381993347538204,-1.3132084911663897,0.466971162111705,-0.044881419619658414,-0.1701305558934631,1
-0.3918267844295905,-1.3341741828318645,-1.358702154153307,-2.3009839603929025,-1.2555219322854108,-0.857103601879213,0.7707809713585126,0.3051429893158608,-0.5323047654942117,-1.1289294243854846,-1.3338055257828736,0.2905038998413783,0.015956855534719136,0.002360139956253,1
-0.14848031099049142,-1.1986489685390074,-0.5985256502719641,-1.9861699458508237,-0.84031329003191,-0.4755295239682682,1.185068790540679,0.4712337278556704,0.43404409081065937,-0.5914176422082723,-1.3338055257828736,0.466971162111705,-0.02974604384953984,0.002360139956253,1
-0.27028537136846154,-1.1136977976285993,-0.7648287367396153,-1.961589872643336,-0.9883542544008633,-0.44842607275173874,1.3556299454562832,0.5262378036058919,0.0644599812032724,-0.7705882362673582,-1.5821815314521164,0.2905038998413783,-0.21255764138657574,-0.14349406163181966,1
-0.24312969773439402,-1.1986489685390074,-0.8597928947503535,-1.9861699458508237,-0.9883542544008633,-0.28474248501277166,1.2092989267543257,0.6092831728757967,0.49111629964062914,-0.8729001353818375,-1.4993895295623565,0.4163412790647566,-0.1211518426180578,0.13502539778369718,1
0.0002167757047050779,-1.0799817687069615,-0.5985256502719641,-1.7195706902926853,-0.7217648615333948,-0.12105889727380467,1.2582342998916578,0.6923285421457015,1.1726582109107186,-0.2590287406947799,-1.043831587456802,0.7442066382132367,0.21360705676794337,0.30725748689300325,1
0.12175818876583404,-0.8595053835036963,-0.3372584057935326,-1.5980884054018423,-0.7217648615333948,-0.17579723992675866,1.428795454807262,0.9409253943107944,1.0308088375081434,0.12526473402807137,-0.7954555817875225,0.9457430658757365,0.41155403007509783,0.2542431051101029,1
0.10831217560724485,-0.7917427763572753,-0.1709553193258814,-1.428391361527059,-0.7512573974037275,-0.2300041423598177,1.404090217883577,0.802875949290717,0.9454775738206721,-0.02845265586105097,-0.7744546837472142,1.2229785419773131,0.533230580383853,0.426733800959819,1
-0.053830924246564806,-0.9950305977965685,-0.6934898082827444,-1.9861699458508237,-0.7512573974037275,-0.12105889727380467,1.453025591020909,1.1900615021205088,0.8889594641055681,0.2016243465379167,-0.7538576491307303,1.072071997361717,0.533230580383853,0.26743204887073135,1
-0.14848031099049142,-1.0459351904821783,-0.7648287367396153,-1.6467758581012786,-0.8698058259022955,-0.17579723992675866,1.3313998092426365,0.9134233564356836,0.6900378818731239,0.09931244742339196,-0.8782475836772823,0.66850758977416,0.5180952046137344,0.2012287233272025,1
-0.04038491108795164,-0.9950305977965685,-0.645776109379741,-1.573981025909872,-0.8108207541615772,-0.2576390337962422,1.0876731449760748,0.13905225077605124,-0.10564844705685489,-0.4122470481491864,-1.0644286220732857,0.34064223062567983,0.24417458038208378,0.04218557797852491,1
-0.17563598462453495,-1.1136977976285993,-0.7884539662934826,-1.8892677341674684,-0.6327089689051597,-0.2576390337962422,0.7707809713585126,0.05600688150614644,-0.049130337341750936,-0.8219937270419558,-1.2510135238931137,0.3662029482804551,0.015956855534719136,-0.06410179232766235,1
-0.14848031099049142,-1.0627932049429896,-0.5985256502719641,-1.4042839820350888,-0.48466800453625897,-0.4207911813152659,1.1361334174033468,0.49873576573078116,0.0644599812032724,-0.6428231329828699,-1.3338055257828736,0.3662029482804551,0.1679041573836844,0.1748508358059691,1
-0.08098659788060836,-0.9104099761893061,-0.669864578728835,-1.5252935732104143,-0.5737238971644414,-0.44842607275173874,1.185068790540679,0.08404817502582972,-0.3899012929768209,-0.6428231329828699,-1.5199865641788404,0.1897356860101284,0.10706588222930684,0.002360139956253,1
-0.06754058472199519,-0.6562175620644182,-0.8120791958473921,-1.428391361527059,-0.48466800453625897,-0.5297364264012789,0.8681766169231383,0.44319243433598715,0.26338156343571667,-0.6428231329828699,-1.4787924949458726,-0.0874997900914481,0.06165975491897811,-0.18331949965409156,1
-0.14848031099049142,-0.6730755765252295,-0.645776109379741,-1.3073817703517336,-0.3956121119080765,-0.28474248501277166,0.7223206989312407,0.8859213185606218,0.7465559915881774,-0.3867938439792228,-1.1888185566198377,-0.23889788696960165,0.18333630522773323,-0.09047967984891929,1
-0.1621899714659218,-0.7917427763572753,-0.5271867218150933,-1.4770788142264955,-0.3956121119080765,-0.06685199484074565,0.9413421262741172,0.7753739114156063,0.7465559915881774,0.07385924325342838,-0.9816366201835259,0.2654347344492052,0.4723923052294754,0.1748508358059691,1
-0.02693889792933847,-0.6221709838396199,-0.5749004207180547,-1.3801766025431401,-0.6622015047755452,-0.5844747690542812,1.1119032811897,0.44319243433598715,0.49111629964062914,-0.10531135080565754,-0.8366496510204902,0.9457430658757365,0.5637981039979933,0.2012287233272025,1
-0.17563598462453495,-0.7917427763572753,-0.09961639086901054,-1.2345869381603272,-0.8698058259022955,-0.6934200141402459,0.7950111075721379,-0.2206312641786787,-0.21923876560187822,-0.8988524219865169,-1.209415591236285,0.49204032750383336,0.1984716809978248,-0.05065424182664738,1
-0.09443261103922153,-0.6899335909860559,-0.12324162042292001,-1.3073817703517336,-0.4545971836487948,-0.28474248501277166,0.9171119900604704,-0.08204256351397989,0.26338156343571667,-0.6173699288129063,-1.209415591236285,0.49204032750383336,0.28987747976634276,0.13502539778369718,1
-0.01322923745390809,-0.6562175620644182,-0.4322225638043129,-1.3801766025431401,-0.4545971836487948,-0.33894938744578235,1.0387377718387212,-0.1375858949087739,-0.19097971074432624,-0.7451350320973946,-1.043831587456802,0.5171094928960065,0.28987747976634276,0.1215778472826587,1
-0.09443261103922153,-0.8254588052789131,-0.5749004207180547,-1.4042839820350888,-0.5141605404066444,-0.3665842788822552,1.014507635625096,-0.2756353399288512,-0.2763109744317976,-0.8474469312119194,-1.271610558509561,0.6178777067272564,0.28987747976634276,0.04218557797852491,1
0.027108802021931413,-0.7067916054468673,-0.24229424778275227,-1.088997273777514,-0.06945936228275827,-0.12105889727380467,1.2582342998916578,0.11155021290094047,0.49111629964062914,-0.4122470481491864,-1.2304164892766298,0.9708122312679096,0.4572569294593568,0.22786521758886946,1
0.20296156235114746,-0.45259919132196436,0.09031192515250797,-0.7982906387273838,0.16821577973140367,0.014989799028737861,1.3556299454562832,0.4712337278556704,0.5758934642132347,-0.053905860031014545,-0.8160526164040063,0.9708122312679096,0.5637981039979933,0.32070503739404177,1
-0.21623767141719166,-0.774884761896449,-0.19458054887979087,-1.428391361527059,-0.24699286252209704,-0.14816234849033416,0.9413421262741172,0.2776409514407501,-0.020317183369383537,-0.8474469312119194,-1.5199865641788404,0.3912721136726282,0.13763340584347425,-0.1569416121328346,1
-0.3108870581611183,-1.0799817687069615,-0.24229424778275227,-1.5498736464179235,-0.6622015047755452,-0.2576390337962422,1.185068790540679,0.5537398414809537,0.5758934642132347,-0.7965405228719923,-1.3960004930561496,0.7692758036054099,-0.02974604384953984,-0.10366862360954776,1
-0.10787862419783469,-0.8595053835036963,-0.07599116131510109,-1.1135773469849801,-0.6327089689051597,-0.3118459362293012,1.3066945723189514,0.49873576573078116,1.229730419740638,-0.07985814663569396,-1.0022336548000097,1.0465112797069864,0.10706588222930684,0.04218557797852491,1
0.14891386239990156,-0.21526479165788784,0.23298978206624968,-0.5316913831692668,0.10865242297360664,0.12393504411475088,1.3556299454562832,0.4156903964608764,1.3150616834281095,0.3044353280871119,-0.7744546837472142,0.9708122312679096,0.4572569294593568,0.1748508358059691,1
0.027108802021931413,-0.21526479165788784,0.1857393229584729,-0.5799061421531642,0.316256744100357,0.6144543671117086,1.4772557272345557,0.6092831728757967,1.0590678923656953,0.15071793819798956,-0.7744546837472142,0.6935767551663331,0.5940688555382035,0.13502539778369718,1
-0.28373138452705077,-0.757696198132477,-0.19458054887979087,-1.1617921059689205,-0.3360487551502795,0.3694604257232014,1.453025591020909,0.3051429893158608,0.3775259810956058,-0.10531135080565754,-0.9610395855670422,0.5426702105507817,0.33558037915060174,-0.06410179232766235,1
-0.27028537136846154,-0.7917427763572753,-0.24229424778275227,-1.1617921059689205,-0.42510464777846196,-0.06685199484074565,1.3313998092426365,-0.3311786713236943,-0.4181603478343225,-0.4122470481491864,-0.9194416529102499,0.794344968997583,0.30501285553646135,-0.024276354305390435,1
-0.08098659788060836,-0.5203617984684005,0.04306146604473118,-0.70138842704405,-0.2175003266517116,-0.20290069114328818,1.2092989267543257,-0.38618274707386674,-0.4181603478343225,-0.5914176422082723,-0.6504686126245234,0.8700440174366598,0.533230580383853,0.09519995976142528,1
-0.22968368457580485,-0.6562175620644182,-0.14686684997682947,-0.822398018219354,-0.6327089689051597,-0.3936877300987847,1.1361334174033468,-0.1375858949087739,-0.13446160102922228,-0.7965405228719923,-0.8988446182937662,0.5171094928960065,0.38098650646095744,-0.209955993915735,1
-0.47303015801490395,-0.8763633979645228,-0.5508119513689606,-1.1376847264769503,-0.780749933274113,-0.5026329751847494,1.0876731449760748,-0.1095446013890416,-0.21923876560187822,-1.282646814274607,-1.5615844968356325,0.03833758913197488,-0.07544894323379882,-0.44865001530895643,1
-0.41898245806363404,-0.774884761896449,-0.36088363534744206,-1.0407825147935736,-0.42510464777846196,-0.2576390337962422,1.2582342998916578,0.22209762004595604,-0.020317183369383537,-1.4872706125036566,-1.6859744313821845,-0.1631988385305249,-0.21255764138657574,-0.3821880830250411,1
-0.35122509763693377,-0.6899335909860559,-0.14686684997682947,-1.0407825147935736,-0.2770636834095086,-0.012113652187791648,1.5261911003718878,0.6648265042705908,0.4057850359531578,-1.1543826285554482,-1.3749995950158045,0.01326842373980177,-0.09058431900391739,-0.3821880830250411,1
-0.40553644490504487,-0.6053129693787934,-0.645776109379741,-1.1376847264769503,-0.3956121119080765,-0.14816234849033416,1.501960964158241,0.4156903964608764,0.49111629964062914,-0.6682763371528334,-1.1266235893465617,0.06340675452414798,0.10706588222930684,-0.39563563352607956,1
-0.3377790844783206,-0.38483658417554334,-0.7171150378366118,-0.822398018219354,-0.18800779078132618,-0.3665842788822552,1.2092989267543257,0.11155021290094047,0.5193753544981812,-0.30993514903466163,-1.0232345528403182,0.13910580296322475,0.30501285553646135,-0.24978143193800692,1
-0.12158828467326507,-0.2661693843434975,-0.12324162042292001,-0.6044862153606733,-0.03938854139534668,-0.4755295239682682,1.014507635625096,0.22209762004595604,0.5193753544981812,-0.2076232499201369,-1.0022336548000097,0.2654347344492052,0.3201482313065799,-0.22314493767636348,1
0.0002167757047050779,-0.19840677719706143,0.04306146604473118,-0.6768083538365409,-0.12844443402352915,-0.4755295239682682,1.1119032811897,0.3051429893158608,0.29219471740813446,-0.4122470481491864,-1.043831587456802,0.4163412790647566,0.38098650646095744,-0.209955993915735,1
0.0002167757047050779,-0.19840677719706143,-0.004652232858230225,-0.7254958065359772,-0.06945936228275827,-0.2300041423598177,1.0876731449760748,0.166554288651162,0.007941871488168441,-0.5405112338683451,-0.7332606145142465,0.7442066382132367,0.5637981039979933,0.10838890352205376,1
-0.053830924246564806,-0.38483658417554334,0.019436236490821712,-0.8465053977113242,-0.03938854139534668,-0.12105889727380467,0.7223206989312407,0.11155021290094047,0.12153219003319177,-0.6173699288129063,-0.44328667618821155,0.9708122312679096,0.5940688555382035,0.1748508358059691,1
-0.2568393582098484,-0.5375503622323724,-0.4558477933582224,-0.9438803031101969,-0.15851525491094073,-0.17579723992675866,0.6976154620075339,0.36014706506608235,0.5758934642132347,-0.7705882362673582,-0.8572466856369739,0.466971162111705,0.41155403007509783,-0.23633388143696843,1
-0.40553644490504487,-0.503503784007574,-0.8361676651964861,-0.8465053977113242,-0.2770636834095086,0.1786733867677049,1.3066945723189514,0.6923285421457015,0.5758934642132347,-0.7965405228719923,-1.3960004930561496,-0.2895277700165053,0.07679513068909669,-0.4884754533312283,1
-0.4324284712222472,-0.5203617984684005,-0.05190269196604915,-0.822398018219354,-0.18800779078132618,-0.06685199484074565,1.3313998092426365,0.802875949290717,1.371579793143163,-0.23307645409010047,-0.9194416529102499,0.23987401679447465,0.09193050645918827,-0.23633388143696843,1
-0.35122509763693377,-0.3511205552539055,-0.09961639086901054,-0.7254958065359772,0.13814495884399208,-0.14816234849033416,1.2824644361053046,1.1900615021205088,1.7411639027506003,0.22757663314255072,-0.6916626818574543,0.6434384243820316,0.3964186543049793,-0.1965084434146965,1
-0.21623767141719166,-0.3002159625682808,-0.05190269196604915,-0.7982906387273838,0.22720085147217453,0.20577683798423438,1.3556299454562832,0.9409253943107944,0.5476344093556827,0.048406039083510204,-0.6710656472409705,0.8199056866523136,0.41155403007509783,-0.1701305558934631,1
-0.27028537136846154,-0.435741176861153,-0.05190269196604915,-0.822398018219354,0.019596530345424187,0.26051518063718837,1.2335290629679725,0.4156903964608764,-0.049130337341750936,-0.4381993347538204,-0.7954555817875225,0.66850758977416,0.2744453319223209,-0.1965084434146965,1
-0.7163766314540271,-0.4866457695467627,-0.9311318232072243,-0.7741832592354566,0.16821577973140367,0.6420892585481814,1.453025591020909,1.1070161328506039,1.1161401011956147,-0.7196818279274311,-1.4993895295623565,-0.465995032286832,-0.16685474200231676,-0.8595761258115074,1
-0.8110260181979296,-0.6221709838396199,-1.2873632256964362,-1.3314891498436823,-0.3956121119080765,0.31472208307019905,1.2582342998916578,0.3051429893158608,-0.020317183369383537,-1.2312413235000095,-1.7065714659986684,-0.7682996737805369,-0.3493695674654494,-1.0056889341399666,1
-0.648882918344144,-0.6899335909860559,-1.121060139228785,-1.5252935732104143,-0.5436530762769772,-0.20290069114328818,1.0387377718387212,-0.02703848776375836,-0.07738939219930291,-0.8474469312119194,-1.2510135238931137,-0.2895277700165053,-0.15142259415829495,-0.594504216897029,1
-0.27028537136846154,-0.4188831624003266,-0.4558477933582224,-1.2104795586683568,-0.2175003266517116,-0.12105889727380467,1.3556299454562832,0.7198305800207633,1.0025497826505914,-0.1562177591455393,-0.5260786780779714,0.6178777067272564,0.33558037915060174,-0.09047967984891929,1
-0.01322923745390809,-0.14750218451145175,0.11440039450160204,-0.7982906387273838,-0.03938854139534668,0.09683159289822137,1.4772557272345557,1.1070161328506039,1.2868026285705574,0.02245375247883078,-0.2777026724086919,0.9457430658757365,0.6095010033822523,0.002360139956253,1
-0.09443261103922153,-0.19840677719706143,-0.07599116131510109,-0.8710854709187903,-0.15851525491094073,-0.09395544605727515,1.2582342998916578,0.8578800250408896,1.0025497826505914,-0.10531135080565754,-0.4226896415717277,0.7191374728211084,0.5029598288436158,-0.11711617411056272,1
-0.2971773976856639,-0.435741176861153,-0.5508119513689606,-1.1858994854608906,-0.2770636834095086,-0.2576390337962422,1.185068790540679,0.581781135000686,0.8036282004180968,-0.2076232499201369,-0.6088706799676945,0.34064223062567983,0.4266894058452164,-0.23633388143696843,1
-0.41898245806363404,-0.588454954917982,-0.8120791958473921,-1.4770788142264955,-0.3661195760376911,-0.06685199484074565,1.37986008166993,0.6092831728757967,0.7748150464457294,-0.4122470481491864,-0.8366496510204902,-0.062430624699275,0.25930995615220237,-0.44865001530895643,1
-0.47303015801490395,-0.6730755765252295,-1.0974349096748754,-1.7918928287685743,-0.3956121119080765,0.20577683798423438,1.4772557272345557,0.8303779871657788,0.9172185189631201,-0.48910574309374755,-0.9404425509505583,-0.26396705236173007,0.07679513068909669,-0.5148533408524852,1
-0.540523871124787,-0.7239801692108392,-1.4536663121640874,-1.8405802814680106,-0.3661195760376911,0.23341172942065888,1.2824644361053046,0.802875949290717,0.6047066181856525,-0.4122470481491864,-0.8160526164040063,-0.11306050774617867,0.25930995615220237,-0.35581019550380766,1
-0.5811255579174437,-0.6053129693787934,-1.4536663121640874,-1.6708832375932487,-0.3360487551502795,-0.06685199484074565,1.185068790540679,0.49873576573078116,0.007941871488168441,-0.5145589472637111,-0.7954555817875225,0.06340675452414798,0.3964186543049793,-0.3821880830250411,1
-0.5542335316002174,-0.588454954917982,-1.0733464403258235,-1.767785449276604,-0.4545971836487948,-0.2576390337962422,1.1119032811897,0.24959965792106678,-0.020317183369383537,-0.6937295413227971,-0.9404425509505583,0.06340675452414798,0.2290392046119922,-0.5016643970918568,1
-0.40553644490504487,-0.588454954917982,-0.7648287367396153,-1.8405802814680106,-0.5141605404066444,-0.2576390337962422,0.8681766169231383,0.24959965792106678,0.6047066181856525,-0.6682763371528334,-0.7332606145142465,0.11403663757105165,0.25930995615220237,-0.3291737012421407,1
-0.28373138452705077,-0.3002159625682808,-0.7171150378366118,-1.428391361527059,-0.15851525491094073,-0.2576390337962422,0.8439464807094915,0.8303779871657788,1.5422423205181057,-0.02845265586105097,-0.2982997070251757,0.23987401679447465,0.5486627282278748,-0.09047967984891929,1
-0.35122509763693377,-0.09659759182584207,-0.8834181243042629,-1.4529714347345466,0.07915988710322121,-0.012113652187791648,1.2092989267543257,1.3561522406603184,1.79823611158057,0.5090591263161613,-0.19450680709510756,0.21480485140230154,0.5789334797681119,-0.2893482632198688,1
-0.4595841448562908,-0.2830273988043089,-0.8361676651964861,-1.816472901976062,-0.12844443402352915,0.20577683798423438,1.5746513727991382,1.1070161328506039,0.8889594641055681,0.09931244742339196,-0.38109170891493555,0.06340675452414798,0.4572569294593568,-0.5813152731364006,1
-0.5948352183928741,-0.4697877550859363,-0.8361676651964861,-1.816472901976062,-0.42510464777846196,-0.039217103404321156,1.453025591020909,0.44319243433598715,-0.21923876560187822,-0.6937295413227971,-0.6916626818574543,-0.13812967313835178,0.28987747976634276,-0.7005329804628299,1
-0.9868787785271697,-0.7917427763572753,-1.3350769245993976,-2.0830721575342004,-0.8698058259022955,-0.3936877300987847,1.3313998092426365,0.2776409514407501,-0.47523255666429226,-1.1543826285554482,-1.0644286220732857,-0.33966610080080684,-0.07544894323379882,-0.873023676312546,1
-1.189623565173636,-1.1136977976285993,-1.7862724850993477,-2.4952610774751736,-0.8698058259022955,-0.3936877300987847,1.3066945723189514,0.166554288651162,-0.19097971074432624,-1.1289294243854846,-1.2304164892766298,-0.44043431463205673,-0.24282839292681288,-0.873023676312546,1
-0.5270778579661738,-0.3511205552539055,-0.645776109379741,-1.428391361527059,0.13814495884399208,0.06972814168169186,1.5504212365855345,0.44319243433598715,0.6047066181856525,-0.3353883532046252,-0.6710656472409705,0.23987401679447465,0.21360705676794337,-0.4884754533312283,1
-0.5676795447588305,-0.36797856971471693,-0.5508119513689606,-1.4042839820350888,0.019596530345424187,0.06972814168169186,1.7209823915010958,0.8303779871657788,0.9172185189631201,-0.2844819448646981,-0.5882736453512474,-0.03736145930710189,0.1984716809978248,-0.6475185986799294,1
-0.5001858316489475,-0.24931136988267114,-0.7884539662934826,-1.4770788142264955,-0.03938854139534668,0.23341172942065888,1.5746513727991382,0.7753739114156063,0.8318872552756488,-0.10531135080565754,-0.7954555817875225,0.06340675452414798,0.5029598288436158,-0.31598475748153576,1
-0.5136318448075606,-0.21526479165788784,-0.8361676651964861,-1.4529714347345466,-0.06945936228275827,0.20577683798423438,1.794147900852118,1.1345181707257148,1.0025497826505914,0.17617114236795312,-0.44328667618821155,0.3912721136726282,0.5180952046137344,-0.3291737012421407,1
-0.5811255579174437,-0.2661693843434975,-0.9311318232072243,-1.4529714347345466,-0.03938854139534668,0.12393504411475088,1.5746513727991382,0.8859213185606218,0.8889594641055681,0.2016243465379167,-0.44328667618821155,-0.11306050774617867,0.4266894058452164,-0.5546787788747571,1
-0.6757749446613703,-0.36797856971471693,-0.8834181243042629,-1.5011861937184656,-0.009896005524961247,0.09683159289822137,1.3556299454562832,0.581781135000686,0.4057850359531578,-0.2076232499201369,-0.6710656472409705,-0.4153651492398836,0.3507157549207203,-0.6873440367022013,1
-0.5270778579661738,-0.19840677719706143,-0.7171150378366118,-1.2104795586683568,0.10865242297360664,-0.2300041423598177,1.428795454807262,0.2776409514407501,0.6047066181856525,-0.2076232499201369,-0.33949377625810667,0.23987401679447465,0.4266894058452164,-0.3027958137209073,1
-0.7163766314540271,-0.4016945986363547,-0.7648287367396153,-1.3073817703517336,-0.18800779078132618,-0.09395544605727515,1.3313998092426365,0.22209762004595604,0.348712827123188,-0.30993514903466163,-0.8366496510204902,0.06340675452414798,0.21360705676794337,-0.5414898351141287,1
-0.8516277049906104,-0.6730755765252295,-0.8597928947503535,-1.5980884054018423,-0.5436530762769772,-0.09395544605727515,1.5504212365855345,0.581781135000686,0.2351225085782151,-0.6428231329828699,-0.9816366201835259,-0.13812967313835178,0.12249803007335566,-0.7137219242234348,1
-0.4864761711735171,0.03892762246701509,-0.7648287367396153,-1.4529714347345466,-0.30655621927989407,-0.3665842788822552,1.3066945723189514,0.5262378036058919,0.9172185189631201,-0.1562177591455393,-0.4226896415717277,0.11403663757105165,0.3201482313065799,-0.5414898351141287,1
-0.6894846051368007,-0.24931136988267114,-1.049721210771914,-1.5980884054018423,-0.3360487551502795,-0.28474248501277166,1.3313998092426365,0.7753739114156063,0.7182969367306254,-0.1821700457502187,-0.6088706799676945,-0.3902959838477552,0.13763340584347425,-0.806561744028607,1
-0.7029306182954138,-0.38483658417554334,-1.192399067685656,-1.5498736464179235,-0.3661195760376911,-0.09395544605727515,1.5504212365855345,1.0239707635806992,0.8036282004180968,-0.2076232499201369,-0.5672727473109023,-0.31459693540867845,0.18333630522773323,-0.6741550929415729,1
-0.6623289315027572,-0.23245335542185974,-1.2637379961425268,-1.4529714347345466,-0.3956121119080765,0.12393504411475088,1.6725221190738455,0.9964687257055884,1.2014713648830861,0.048406039083510204,-0.4226896415717277,0.08896747217887854,0.36585113069083885,-0.5678677226353857,1
-0.8785197313078127,-0.23245335542185974,-1.4536663121640874,-1.767785449276604,-0.30655621927989407,0.12393504411475088,1.6235867459365134,0.7198305800207633,1.0878810463380628,-0.02845265586105097,-0.5054816434614876,-0.0874997900914481,0.3507157549207203,-0.7801838565073737,1
-0.7975800050393405,-0.13064417005064038,-1.2873632256964362,-1.7436780697846554,0.07915988710322121,0.014989799028737861,1.5504212365855345,0.581781135000686,0.8318872552756488,-0.2076232499201369,-0.4638837108046587,-0.21382872157742855,0.33558037915060174,-0.7137219242234348,1
-0.3918267844295905,0.19131085122069866,-0.7171150378366118,-1.0162024415861075,0.40531263672853945,0.04262469046516236,1.6725221190738455,0.7753739114156063,1.0308088375081434,0.048406039083510204,-0.17390977247862374,0.11403663757105165,0.5180952046137344,-0.40882457728668453,1
-0.22968368457580485,0.24221544390630834,-0.5749004207180547,-0.6527009743445708,0.3457492799706898,-0.039217103404321156,1.794147900852118,0.9689666878305266,1.0025497826505914,0.35534173642703903,-0.04951983793207174,0.3662029482804551,0.6095010033822523,-0.422013521047313,1
