AF3,F7,F3,FC5,T7,P7,O1,O2,P8,T8,FC6,F4,F8,AF4,eyeDetection
0.6999065474754083,0.08100057410031254,1.132432761473383,1.2643199738871873,0.568406932260063,-1.6924082008549048,1.066011698771743,1.368261111013205,1.097237820609754,0.2627292670209439,0.3241884188500777,0.005761662308116663,0.8381862600194177,0.7754292398222045,0
0.5768726063586278,-0.07740682610603622,1.3426682358608035,1.2882358775403941,0.09909013111130298,-1.6659177377115706,1.0892160944472558,1.257642063411563,0.49041769921202444,-0.3162415756962811,0.18619565644156078,-0.04351466401999331,0.7507116486659828,0.5237291876961404,0
0.6588062721348766,-0.006965357467633877,1.4122916721838867,1.6488501894875955,-0.19416141455169086,-1.8228227886373387,1.066011698771743,0.7899275466103278,0.3247256802487658,-0.543115646379362,0.14698879915559523,0.0801592530387589,0.6342681725136962,0.6561621381993719,0
0.6862954173301854,0.16896650566825894,1.4591623515386385,1.6249342858343887,0.18712275885418608,-1.8752942829404247,1.0892160944472558,0.8173138156767722,0.8492377532654323,0.11147988656555659,0.30458499020711244,0.3526283515587516,0.7362272162665698,0.8415166381240092,0
0.617705996794345,0.16896650566825894,1.2725897443983438,1.4082843350936711,0.4214953392085894,-1.6659177377115706,1.0204953841774271,0.6519222299421925,0.49041769921202444,0.539692418244468,0.3833830857328361,0.37774961596132783,0.7507116486659828,0.8944381875453915,0
0.48106092553231733,-0.07740682610603622,0.8989894749783366,1.504416888993784,0.30430904903141376,-1.6399367065517725,0.905812120934877,0.0735886655393153,0.048751635676962835,-0.014233884202580163,0.2649937519673194,0.03088292671064893,0.6197837401142572,0.6693279870798178,0
0.4399606501917857,-0.20076530045326557,0.7356246799457088,1.432200238746878,0.18712275885418608,-1.7703512943342525,0.7456125430980111,0.018816127406426433,0.5732637086936293,-0.3162415756962811,-0.06980205877868031,-0.5145383715679017,0.5323091287608225,0.37813038831243945,0
0.6040948666491222,-0.006965357467633877,0.6423383763755408,1.023754119493263,0.21627642128853064,-1.8488038197971366,0.6313755182338464,-0.03649339639439459,0.2144436546401725,-0.13994765497067224,-0.2669894880699556,-0.6628504517906649,0.4448345174073877,0.4310519377338217,0
0.617705996794345,0.13391757980915517,0.5490520728053728,0.8554049153462443,0.2751553865970692,-1.7968417574775406,0.8143332533678803,-0.39412585126191985,-0.7511965208110627,-0.16548326465796748,-0.030595201492679806,-0.31598376253998606,0.5905308668369788,0.6693279870798178,0
0.617705996794345,0.15144204273871487,0.572259884913081,0.9754533728995639,0.21627642128853064,-1.8752942829404247,0.8830539636377293,-0.3667395821954754,-0.392376466757606,-0.2155723451983659,0.3833830857328361,-0.11791225475063553,0.881923565696135,0.7620052370421364,0
0.617705996794345,0.13391757980915517,0.38568727777274503,1.023754119493263,0.12824379354564755,-2.031689901882703,0.6541336755310144,0.018816127406426433,0.24187967076716096,-0.2155723451983659,0.30458499020711244,-0.3657431901066172,0.7214587753887044,0.483973487155204,0
0.3713712296559695,-0.14819191166461773,-0.22090122300297316,0.6870557111992257,-0.04724982150026926,-1.9272563452600209,0.5854129652611655,-0.009107127327950154,-0.30953045727600115,-0.4674909561516684,-0.20779482118719725,-0.8860432239825916,0.19717912422492306,0.1796100395073797,0
0.13891447756763145,-0.4653503289974944,-0.7578662874556081,0.1580921951050058,-0.25246873942038,-1.7703512943342525,0.7456125430980111,-0.28404378932820995,-0.6957865274564463,-0.5681601866495837,-0.48378034600419617,-1.1831504856666832,-0.006738963280824257,0.15302018784686575,0
0.13891447756763145,-0.2890748489414068,-0.5712936803152722,0.0614907019176079,-0.10612878680880777,-1.7703512943342525,0.8143332533678803,0.0735886655393153,0.2144436546401725,-0.3668217256537532,-0.32618415495271397,-0.8116456332519494,0.10998852134991477,0.19277588838780213,0
0.26194841868441193,-0.024833437317372746,-0.17448559878755673,0.30205655631148964,0.04078280624261383,-1.6924082008549048,0.7456125430980111,0.7072317537430624,0.7663917437838274,-0.3918662659239748,-0.1489845352581965,-0.291345599375975,0.15344181854820568,0.31204299001061125,0
0.2894375638797207,-0.11279936888531916,-0.38426601803560095,0.30205655631148964,-0.13528244924315236,-1.6924082008549048,0.8143332533678803,0.6519222299421925,0.24187967076716096,-0.4169108061941963,-0.12899672566143866,-0.5391765347319567,0.10998852134991477,0.3912962371928853,0
0.09781420222709981,-0.3065993118709665,-0.7810740995632749,0.0614907019176079,-0.19416141455169086,-1.7968417574775406,0.9517746739075782,0.2663665203402906,0.048751635676962835,-0.3417771853835763,-0.34578758359567924,-1.2575480763973255,-0.006738963280824257,0.15302018784686575,0
0.015613651546036502,-0.3595163175798091,-0.6877877959931483,0.037574798264401015,0.04078280624261383,-1.7968417574775406,0.7915750960707123,0.04620239647287087,0.10416162903153031,-0.3417771853835763,-0.5233715842439892,-1.2821862395613366,-0.006738963280824257,0.16644419062693377,0
0.24833728853918907,-0.23615784323256414,-0.38426601803560095,0.13370735216451374,0.09909013111130298,-1.6659177377115706,0.5626548079639975,-0.2566575202617655,-0.5026584923661993,-0.49253549642189,-0.40498225047843756,-0.7618862056853621,0.24091642990164042,0.4708076382747581,0
0.34414896936547523,-0.11279936888531916,-0.31418752657314114,0.0614907019176079,0.06993646867695841,-1.5874652122486865,0.6773380712065475,-0.4494353750627409,-0.7232225435834837,-0.7950342573326646,-0.1093932970184384,-0.4894171071653255,0.4303500850079488,0.3912962371928853,0
0.3030486940249436,-0.042357900246932444,-0.22090122300297316,0.10979144851130684,0.2751553865970692,-1.5874652122486865,0.8602958063405612,-0.14657545832810448,0.26985364799474,-0.5180711061091405,0.2649937519673194,-0.3903813532706283,0.5178246963613836,0.45764178939431216,0
0.5768726063586278,0.2043590484475575,-0.05753642797034536,0.5187065070522499,0.1579690964198415,-1.6399367065517725,0.837091410665028,0.12889818934013633,0.6281357409476551,0.3633984975188591,0.5805705150241114,-0.291345599375975,0.7362272162665698,0.9473597369667738,0
0.754617952961187,0.591958934418821,0.08216549981519766,0.8793208189994511,-0.22331507698603545,-1.7183892320146565,0.7456125430980111,0.12889818934013633,0.1595716223860978,0.5902725682019401,0.521375848141353,-0.291345599375975,0.9253768628944518,0.9739495886272642,0
0.6315840118444066,0.45107599714203184,-0.011120803754928948,0.7592723614461315,-0.3405013671632631,-1.6924082008549048,0.6773380712065475,0.32167604414111167,0.6281357409476551,0.2627292670209439,0.22578689468135382,-0.44014078083725944,0.7944489543427002,0.5503190393566308,0
0.4946720556775645,0.028083568391469894,-0.19769341089526496,0.5187065070522499,-0.018096159065924683,-1.7183892320146565,0.6313755182338464,0.7899275466103278,1.5389038841448155,0.4640677280167743,0.22578689468135382,-0.4894171071653255,0.6050152992363919,0.3912962371928853,0
0.3852492447060069,0.028083568391469894,-0.31418752657314114,0.35035730290523126,0.18712275885418608,-1.7443702631744546,0.6773380712065475,1.257642063411563,1.6212119325258787,0.7159863389700322,0.24539032332431912,-0.5145383715679017,0.5323091287608225,0.5766507371174991,0
0.23445927348912743,0.010559105461910197,-0.6177093045306471,0.1820080987582127,-0.22331507698603545,-1.6399367065517725,0.6541336755310144,1.0100916704776988,0.40757168973037067,-0.03927842447275705,-0.20779482118719725,-0.8860432239825916,0.25540086230107933,0.44447594051386624,0
0.1525256077128786,-0.23615784323256414,-0.874360403133443,0.013658894611194123,-0.6337529128262569,-1.7183892320146565,0.6086173609366986,0.10151192027369188,-0.6683505113294579,-0.8200787976028862,-0.641760918009506,-1.2821862395613366,-0.06496070135695471,-0.04550016095819398,0
0.13891447756763145,-0.1657163745941618,-0.5244230009605205,0.0614907019176079,-0.4285339949061462,-1.8752942829404247,0.6541336755310144,-0.2566575202617655,-0.4752224762392109,-0.8200787976028862,-0.503768155600989,-1.1338741593385733,-0.03570782807967626,-0.09842171037957627,0
0.22084814334388028,0.15144204273871487,0.03574987559982264,0.4225739531521371,-0.04724982150026926,-1.8228227886373387,0.7456125430980111,0.04620239647287087,-0.08896640605871675,-0.6187403366070557,-0.2669894880699556,-0.7126098793572522,0.13895738614876676,0.27228728946967484,0
0.22084814334388028,0.06347611117075284,0.03574987559982264,0.446489856805344,-0.16443611167749692,-1.7183892320146565,0.6541336755310144,-0.03649339639439459,-0.6129405179748415,-0.719409567104971,-0.2869772976667134,-0.7126098793572522,0.0662512156731974,0.27228728946967484,0
0.08393618717703819,-0.21863338030300444,-0.22090122300297316,-0.010257009042012767,-0.5748739475176664,-1.7968417574775406,0.5626548079639975,-0.4494353750627409,-0.8889145625466934,-0.7950342573326646,-0.1093932970184384,-0.8362837964160044,0.13895738614876676,0.13985433896641983,0
0.11142533237234696,-0.13032383181487886,-0.05753642797034536,0.013658894611194123,-0.5457202850833218,-1.8752942829404247,0.6086173609366986,-0.2018849821289255,0.021315619549925464,-0.4169108061941963,0.22578689468135382,-0.44014078083725944,0.45931894980682664,0.4047202399729299,0
0.31665982417019073,0.045951648241208766,0.17590685852474222,0.32644139925202437,-0.28219404229457395,-1.7968417574775406,0.8602958063405612,0.5418401680085314,0.6006997248206177,-0.08985857443027381,0.30458499020711244,-0.21694800864533276,0.5178246963613836,0.483973487155204,0
0.2894375638797207,-0.13032383181487886,-0.03432861586263715,0.13370735216451374,-0.22331507698603545,-1.6659177377115706,1.2262112766086088,0.9547821466768778,0.7384177665562973,-0.014233884202580163,0.16659222779859548,-0.4647789440012705,0.357359906053953,0.21936574004831605,0
0.13891447756763145,-0.3241237748005106,-0.4543445094980607,-0.0824736592889186,-0.4285339949061462,-1.5614841810888884,1.1119742517444238,0.6798454846766179,0.8492377532654323,0.11147988656555659,0.20618346603835358,-0.5638146978959677,0.4303500850079488,0.1135226412055515,0
0.1525256077128786,-0.024833437317372746,-0.5012151888528124,-0.010257009042012767,-0.5748739475176664,-1.7183892320146565,0.4024552301271519,-0.03649339639439459,0.048751635676962835,0.1620600365230287,0.22578689468135382,-0.44014078083725944,0.6197837401142572,0.16644419062693377,0
0.08393618717703819,0.028083568391469894,-0.5012151888528124,-0.010257009042012767,-0.5748739475176664,-2.031689901882703,0.1967393376959702,-0.42204910599634526,-0.8060685530650885,-0.4169108061941963,-0.1489845352581965,-0.63821228862661,0.45931894980682664,0.08693278954506103,0
-0.1485205649112999,-0.48287479192703847,-0.6645799838854402,-0.13077440588261754,-0.5457202850833218,-1.9532373764198188,0.5626548079639975,-0.33935331312907985,-0.6683505113294579,-1.1977111793242807,-0.6021696797697129,-1.0348384054438762,-0.006738963280824257,-0.005744460417257613,0
-0.05270888408498945,-0.42995778621819586,-0.5244230009605205,-0.0824736592889186,-0.4285339949061462,-1.8488038197971366,0.6541336755310144,-0.2018849821289255,-0.30953045727600115,-1.1220864890965871,-0.5625784415299547,-0.9604408147132338,-0.15215130423198883,0.07376694066461513,0
0.2894375638797207,0.13391757980915517,-0.19769341089526496,0.1580921951050058,-0.16443611167749692,-1.9797278395631068,0.7000962285036954,0.15628445840658076,0.10416162903153031,-0.4674909561516684,-0.1489845352581965,-0.6135741254625989,0.19717912422492306,0.1796100395073797,0
0.3852492447060069,0.13391757980915517,-0.26777190235772474,0.22983990606458382,-0.04724982150026926,-1.7968417574775406,0.9517746739075782,0.5418401680085314,0.35269965747634485,-0.16548326465796748,-0.05019863013568006,-0.44014078083725944,0.37212834693179253,0.3252088388910571,0
0.0703250570318153,-0.2890748489414068,-0.5712936803152722,0.013658894611194123,-0.4874129602146847,-1.7703512943342525,0.9745328312047259,0.2389802512738462,-0.08896640605871675,-0.543115646379362,-0.22778263078395508,-0.5638146978959677,0.12447295374935369,0.16644419062693377,0
-0.16239857996133725,-0.39490886035909206,-0.6877877959931483,-0.03464185198250482,-0.8972791556150048,-2.110142427345587,0.6773380712065475,0.018816127406426433,0.07672561290449294,-0.9713281780582734,-0.188191392544197,-0.8614050608185366,-0.006738963280824257,-0.16450910868140445,0
-0.10768717447555845,-0.20076530045326557,-0.7578662874556081,0.08587554485809996,-0.4285339949061462,-2.0057088707229047,0.6313755182338464,0.48706762987564256,1.0143918111281491,-0.4424464158814469,0.10739756091583713,-0.7372480425213072,0.25540086230107933,-0.018910309297703525,0
-0.011875493649248002,-0.006965357467633877,-0.6645799838854402,-0.03464185198250482,0.09909013111130298,-1.5355031499291367,0.9745328312047259,0.6519222299421925,0.7938277599108647,0.41397864747633123,0.5805705150241114,-0.26670743621192,0.6050152992363919,0.31204299001061125,0
0.1525256077128786,-0.024833437317372746,-0.36105820592789273,-0.13077440588261754,-0.3696550295975557,-1.6139556753920208,1.1119742517444238,0.32167604414111167,0.26985364799474,0.5146478779742464,0.7777579443153866,-0.19230984548127777,0.7651960810654218,0.33837468777150304,0
0.3302709543154379,-0.21863338030300444,-0.08119929521738874,-0.03464185198250482,-0.6337529128262569,-1.8228227886373387,0.8830539636377293,0.32167604414111167,0.46298168308498705,0.33835395724863754,0.6197773723101119,-0.14255041791469053,0.7799645219432871,0.44447594051386624,0
0.39886037485125403,-0.07740682610603622,0.19911467063245045,0.10979144851130684,-0.13528244924315236,-1.7443702631744546,0.6313755182338464,0.3490623132075561,0.2972896641217774,0.43902318774655275,0.560967086381111,0.25359259766409836,0.8089333867421392,0.6298304404385036,0
0.3577600995107224,0.23975159122684048,0.15224399127765745,0.1580921951050058,0.12824379354564755,-1.5095221187693386,0.7228543858008634,0.04620239647287087,-0.06153038993167938,-0.014233884202580163,0.4029865143758363,0.03088292671064893,0.6780054781904135,0.31204299001061125,0
0.05671392688656816,0.06347611117075284,-0.22090122300297316,-0.058557755635711715,0.04078280624261383,-1.1957120169178024,0.8830539636377293,-0.17396172739450008,-0.11640242218575411,-0.6688294171474989,-0.16858796390119674,-0.9353195503107016,0.15344181854820568,-0.15134325980095856,0
-0.2582102607876477,-0.4124333232886518,-0.4543445094980607,-0.2269069597827303,-0.16443611167749692,-1.1697309857580043,0.8602958063405612,-0.31196704406263537,-0.4477864601121735,-1.046952868285967,-0.6217731084127132,-1.3319456671279677,-0.23962591558542357,-0.41620916080746856,0
-0.1485205649112999,-0.42995778621819586,-0.26777190235772474,-0.10685850222941067,-0.19416141455169086,-1.2741645423806864,1.066011698771743,-0.06387966546083902,-0.4477864601121735,-1.1476220987838823,-0.40498225047843756,-0.9604408147132338,-0.123182439433111,-0.33669775972557237,0
0.13891447756763145,0.010559105461910197,0.17590685852474222,0.22983990606458382,0.2460017241627246,-1.2222024800610904,1.2949319868784577,0.3764485822740005,0.18700763851313515,-0.5681601866495837,0.08779413227283688,-0.41550261767320446,0.2264319975022015,0.28545313835012076,0
0.34414896936547523,0.48646853992133043,0.6191305642678326,0.6148390609523199,0.33346271146570633,-1.4310695933064546,1.0204953841774271,0.2389802512738462,0.3801356736033822,0.11147988656555659,0.36377965708987076,0.005761662308116663,0.5467935611602613,0.7222495365012,0
0.6999065474754083,0.6624004030572233,0.7592875471927523,0.9276215655931501,-0.19416141455169086,-1.7183892320146565,0.5626548079639975,-0.11918918926166004,0.10416162903153031,0.03634626575493661,0.4029865143758363,0.055521089874703916,0.6924899105898524,0.6032405887780131,0
0.877918778982782,0.6098270142685598,0.7592875471927523,1.0715859267996766,-0.22331507698603545,-1.4310695933064546,0.7000962285036954,0.04620239647287087,0.021315619549925464,0.010810656067641386,0.34379184749307795,-0.26670743621192,0.7069743429892655,0.5634848882370768,0
0.5768726063586278,0.4156834543627333,0.5490520728053728,0.6870557111992257,0.06993646867695841,-0.9608638725126402,1.1806949620142726,0.569226437074927,0.5178537153390128,0.43902318774655275,0.521375848141353,-0.1676716823172228,0.7507116486659828,0.6429962893189495,0
0.31665982417019073,0.15144204273871487,0.19911467063245045,0.0614907019176079,-0.3405013671632631,-0.8824113470497561,1.2262112766086088,0.9000096085440377,1.1246738367367914,0.48960333770402487,0.698959848789628,0.15455684376940113,0.6780054781904135,0.44447594051386624,0
0.26194841868441193,-0.042357900246932444,0.08216549981519766,0.1580921951050058,-0.3993803324718016,-0.9343734093693521,1.2262112766086088,0.9000096085440377,0.9041097855195069,0.33835395724863754,0.521375848141353,-0.09327409158658055,0.4448345174073877,0.28545313835012076,0
0.24833728853918907,0.08100057410031254,0.26919316209491023,0.6148390609523199,0.21627642128853064,-0.9608638725126402,1.1806949620142726,0.734618022809458,0.40757168973037067,0.3633984975188591,0.4029865143758363,-0.19230984548127777,0.4303500850079488,0.4178860888533758,0
0.26194841868441193,0.11639311687961111,0.19911467063245045,0.39818911021160236,0.2460017241627246,-0.8824113470497561,1.0204953841774271,0.7620042918759024,0.6835457343022225,0.1620600365230287,0.46218118125859464,0.0801592530387589,0.503056255483544,0.31204299001061125,0
0.13891447756763145,-0.11279936888531916,0.012542063492114437,0.013658894611194123,-0.3696550295975557,-0.9343734093693521,0.9745328312047259,0.8720863538096123,0.7384177665562973,-0.2155723451983659,0.20618346603835358,-0.06863592842252557,0.18269469182548415,-0.018910309297703525,0
-0.09380915942552111,-0.14819191166461773,0.05895768770753085,0.08587554485809996,-0.45768765734043876,-1.3785980990033222,0.6773380712065475,0.21159398220740178,-0.4477864601121735,-0.5932047269198052,-0.188191392544197,-0.5638146978959677,-0.10869800703367208,-0.13817741092051264,0
-0.1760097101065844,-0.09527490595577509,-0.03432861586263715,0.037574798264401015,0.09909013111130298,-1.4570506244662063,0.4024552301271519,-0.5047448988636107,-1.330580626081755,-1.0719974085561887,-0.32618415495271397,-0.63821228862661,-0.123182439433111,-0.08525586149913035,0
0.015613651546036502,-0.11279936888531916,-0.15082273154051334,0.22983990606458382,0.36318801433995224,-1.0393163979755242,0.6541336755310144,-0.14657545832810448,-0.4752224762392109,-1.1977111793242807,-0.16858796390119674,-0.291345599375975,-0.15215130423198883,-0.13817741092051264,0
0.2755595488296591,0.045951648241208766,0.19911467063245045,0.7348875185056395,0.12824379354564755,-1.2222024800610904,0.8143332533678803,0.40437183700837714,0.3247256802487658,-0.543115646379362,0.12700098955880243,0.12991868060534614,0.03699834239589311,-0.03233431207774807,0
0.3577600995107224,0.25727605415640015,0.6655461884832491,0.8554049153462443,-0.13528244924315236,-1.8228227886373387,0.5626548079639975,-0.03649339639439459,-0.1718124155403216,0.08643534629533504,0.36377965708987076,0.25359259766409836,0.38661277933123145,0.37813038831243945,0
0.4535717803370328,0.3631100655740854,0.8989894749783366,0.7831882650993385,-0.16443611167749692,-1.6924082008549048,0.6086173609366986,-0.17396172739450008,-0.14437639941328423,0.4640677280167743,0.5805705150241114,0.20431627133598837,0.5760464344375399,0.6693279870798178,0
0.6726842871849382,0.48646853992133043,0.8525738507629202,0.9276215655931501,-0.4285339949061462,-1.0128259348322362,1.2034531193114408,0.7899275466103278,0.8766737693924695,0.7415219486573273,0.9157507067239036,0.550699859348146,0.7507116486659828,0.6429962893189495,0
0.590483736503875,0.43355153421247217,0.7824953593004604,0.7109716148524327,-0.72178554056914,-0.6735442338044382,1.6380892998493168,1.2302557943451184,0.9315458016465443,0.4640677280167743,0.9749453736066619,0.9473259761654123,0.8526706924188565,0.5105633388156945,0
0.26194841868441193,0.11639311687961111,0.8057031714081686,0.39818911021160236,-0.5165666226490293,-0.6470537706611038,1.5925729852550214,0.7072317537430624,0.5732637086936293,0.03634626575493661,0.7185632774326283,0.9473259761654123,0.6632370373125481,0.4178860888533758,0
0.17974786800334863,-0.042357900246932444,0.6423383763755408,0.5665383143586209,-0.28219404229457395,-0.6735442338044382,1.4323734074181556,0.6798454846766179,0.8212637760379021,0.21264018648050081,0.46218118125859464,0.526061696184091,0.40109721173067037,0.2325315889287385,0
0.11142533237234696,-0.05988236317647652,0.22232248274011726,0.4225739531521371,-0.3405013671632631,-0.6210727395013058,1.3408945398511385,0.734618022809458,0.5178537153390128,0.03634626575493661,0.10739756091583713,-0.09327409158658055,0.16821025942607104,-0.09842171037957627,0
-0.08019802928027395,-0.21863338030300444,-0.19769341089526496,0.013658894611194123,-0.3696550295975557,-0.8824113470497561,0.9972909885018939,-0.14657545832810448,-0.6683505113294579,-0.543115646379362,-0.22778263078395508,-0.5145383715679017,-0.006738963280824257,-0.3632876113860863,0
-0.09380915942552111,-0.34199185465024945,-0.4775523216057276,0.2059240024114196,-0.13528244924315236,-1.4830316556260044,0.5854129652611655,-0.917686877531957,-1.1923246232455826,-0.3668217256537532,-0.2869772976667134,-0.6879717161932412,0.022513909996480026,-0.28377621030421357,0
-0.27182139093289487,-0.23615784323256414,-0.6645799838854402,0.4225739531521371,0.011057503368419897,-1.5874652122486865,0.4252133874242996,-1.0003826703992225,-0.9991965881553356,-0.13994765497067224,-0.2669894880699556,-0.8362837964160044,0.08073564807261048,-0.1910989603418949,0
-0.5728675635570492,-0.1832408375237215,-0.8511525910257347,-0.058557755635711715,-0.31134770472891854,-1.1957120169178024,0.33373451985730296,-1.2205467942666421,-1.2477346166001502,-0.8957034878305798,-0.42497006007523036,-1.0841147317719861,-0.021223395680237345,-0.41620916080746856,0
-0.3948553320496753,-0.23615784323256414,-0.8975682152411512,-0.10685850222941067,-0.3405013671632631,-0.9608638725126402,0.3569389155328361,-0.9450731465984015,-0.9991965881553356,-1.3990496403201111,-0.5625784415299547,-0.9604408147132338,-0.09392956615583255,-0.4691307102288274,0
-0.0390977539397423,-0.042357900246932444,-0.5945014924229803,0.6387549646055268,0.2751553865970692,-0.6735442338044382,0.6773380712065475,0.12889818934013633,0.2972896641217774,-0.7950342573326646,-0.40498225047843756,-0.5145383715679017,-0.07944513375639363,-0.25718635864369965,0
-0.09380915942552111,0.23975159122684048,-0.19769341089526496,0.9032367226526581,0.5386816293858171,-0.33375310079310383,0.837091410665028,0.5418401680085314,0.7109817504292599,-0.06481403416005227,-0.22778263078395508,-0.44014078083725944,-0.07944513375639363,-0.20426480922234083,0
-0.2034988553018689,0.29232498001550394,-0.08119929521738874,0.7592723614461315,0.3923416767742968,-0.22931954417042172,0.7688169387735645,0.2389802512738462,0.49041769921202444,0.03634626575493661,-0.22778263078395508,-0.5884528610600227,-0.021223395680237345,-0.12501156204006672,0
0.11142533237234696,0.3277175227947869,0.15224399127765745,0.8071041687525453,0.48037430451717994,-0.17684804986733565,0.9290165166104102,0.514453898942087,0.9869557950011119,0.03634626575493661,-0.08978986837543815,-0.24206927304786502,0.2264319975022015,0.03401124012367876,0
0.4260826351417483,0.5039930028508744,0.5959227521601245,0.951537469246357,0.48037430451717994,-0.35973413195285553,1.1806949620142726,0.9273958776104333,1.2075198462183963,0.539692418244468,0.4425777526155944,0.4023877791253828,0.6632370373125481,0.19277588838780213,0
0.3852492447060069,0.5039930028508744,0.7824953593004604,0.9032367226526581,0.4214953392085894,-0.6470537706611038,0.9972909885018939,0.514453898942087,0.26985364799474,0.9679049499233346,0.7577701347186288,0.6748568776453756,0.9546297361717302,0.44447594051386624,0
0.2755595488296591,0.15144204273871487,0.6423383763755408,0.7109716148524327,0.2751553865970692,-0.5426202140384216,0.7688169387735645,-0.2018849821289255,-0.6129405179748415,0.41397864747633123,0.46218118125859464,0.45166410545344887,0.7507116486659828,0.4178860888533758,0
0.31665982417019073,-0.14819191166461773,0.33881659841799344,0.6148390609523199,-0.28219404229457395,-0.490658151718872,0.9290165166104102,-0.4494353750627409,-0.6409144952024205,-0.543115646379362,0.08779413227283688,0.10479741620281388,0.4448345174073877,0.08693278954506103,0
0.3030486940249436,0.08100057410031254,0.31560878631028527,0.7592723614461315,-0.31134770472891854,-0.7514873272837859,1.1119742517444238,-0.09126593452723462,-0.006120396577111905,-0.4169108061941963,0.14698879915559523,0.15455684376940113,0.5760464344375399,0.16644419062693377,0
0.24833728853918907,0.3981589914331892,0.5959227521601245,0.9754533728995639,0.33346271146570633,-0.6735442338044382,1.066011698771743,0.3490623132075561,0.6561097181752341,0.33835395724863754,0.560967086381111,0.4023877791253828,0.8526706924188565,0.4178860888533758,0
0.23445927348912743,0.2218835113771016,0.6892090557302925,0.8310200724057523,0.33346271146570633,-0.5686012451982198,0.9745328312047259,0.43175810607482157,0.6561097181752341,0.5146478779742464,0.7185632774326283,0.50142353302008,0.8234178191415781,0.2456974378091844,0
0.08393618717703819,-0.14819191166461773,0.5959227521601245,0.6626708682587337,-0.04724982150026926,-0.8824113470497561,0.9517746739075782,0.514453898942087,0.3801356736033822,0.21264018648050081,0.521375848141353,0.4023877791253828,0.6197837401142572,0.0603429378845471,0
-0.0390977539397423,-0.20076530045326557,0.45576576923520484,0.6626708682587337,0.04078280624261383,-0.9868449036724382,0.7000962285036954,0.7072317537430624,0.49041769921202444,0.1620600365230287,0.2649937519673194,0.1791950069334561,0.4740873906846662,0.13985433896641983,0
0.1525256077128786,0.09852503702985661,0.19911467063245045,0.7348875185056395,0.18712275885418608,-0.5686012451982198,0.44841778309983277,0.5418401680085314,0.6281357409476551,0.41397864747633123,0.28498156156411214,0.0801592530387589,0.5178246963613836,0.07376694066461513,0
0.3302709543154379,0.5039930028508744,0.12903617916999063,0.9032367226526581,0.3923416767742968,-0.3077720696333058,0.7228543858008634,0.29428977507466725,0.435007705857408,0.2627292670209439,0.42297432397262913,0.0801592530387589,0.5323091287608225,-0.11158755926002217,0
0.09781420222709981,0.34524198572434656,0.19911467063245045,0.9754533728995639,0.5975605946944076,-0.5166391828786701,1.0892160944472558,0.2663665203402906,0.10416162903153031,-0.3162415756962811,0.12700098955880243,-0.14255041791469053,0.28465373557835777,-0.310366061964704,0
-0.1760097101065844,-0.11279936888531916,-0.08119929521738874,0.7348875185056395,0.011057503368419897,-0.7255062961239879,1.043253541474575,0.21159398220740178,-0.22668444779439634,-0.9207480281008014,-0.36577539319247204,-0.4647789440012705,0.022513909996480026,-0.429375009687891,0
-0.10768717447555845,-0.024833437317372746,0.05895768770753085,0.49432166411171513,-0.6337529128262569,-0.7514873272837859,0.7000962285036954,-0.14657545832810448,-0.3649404506305686,-1.046952868285967,-0.22778263078395508,-0.19230984548127777,0.21194756510278842,-0.12501156204006672,0
0.31665982417019073,0.4156834543627333,0.8525738507629202,0.9754533728995639,-0.13528244924315236,-0.9868449036724382,0.49393409769414853,-0.3667395821954754,-0.006120396577111905,-0.3162415756962811,0.4817846099015949,0.6250974500787883,0.6632370373125481,0.36496453943199353,0
0.5357723310180962,0.43355153421247217,1.155640573581091,1.432200238746878,0.2751553865970692,-1.1437499545982064,0.44841778309983277,-0.09126593452723462,0.5178537153390128,0.5652280279317186,0.8169648016013872,0.9719641393294672,0.8381862600194177,0.3912962371928853,0
0.17974786800334863,0.045951648241208766,0.7592875471927523,0.9276215655931501,-0.3405013671632631,-0.8824113470497561,0.5171384933696817,0.18367072747302518,0.6006997248206177,0.43902318774655275,0.4029865143758363,0.45166410545344887,0.5467935611602613,-0.005744460417257613,0
-0.1760097101065844,-0.21863338030300444,0.47897358134291307,0.49432166411171513,-0.4874129602146847,-0.82993985274667,0.6086173609366986,0.3490623132075561,0.40757168973037067,-0.2155723451983659,0.04820289403307879,-0.01887650085593832,0.2264319975022015,-0.1910989603418949,0
0.0703250570318153,-0.13032383181487886,0.6655461884832491,0.8793208189994511,0.33346271146570633,-0.9868449036724382,0.5854129652611655,0.43175810607482157,0.2972896641217774,-0.08985857443027381,0.16659222779859548,0.1791950069334561,0.3283910412550752,-0.13817741092051264,0
0.4124715049965012,-0.05988236317647652,0.7824953593004604,1.023754119493263,0.45122064208283535,-0.6995252649641899,0.7228543858008634,0.459144375141266,0.2972896641217774,-0.08985857443027381,0.34379184749307795,0.4023877791253828,0.4740873906846662,-0.04550016095819398,0
0.2755595488296591,-0.1832408375237215,0.6191305642678326,0.7348875185056395,-0.10612878680880777,-0.490658151718872,0.837091410665028,0.8447000847431678,0.6835457343022225,-0.29119703542605957,0.34379184749307795,0.4023877791253828,0.5178246963613836,0.1796100395073797,0
0.05671392688656816,-0.09527490595577509,0.6655461884832491,0.7592723614461315,-0.018096159065924683,-0.856430315889958,0.6541336755310144,1.0927874633449641,0.9869557950011119,0.11147988656555659,0.6001739436671116,0.550699859348146,0.6924899105898524,0.36496453943199353,0
0.09781420222709981,0.045951648241208766,0.572259884913081,0.9754533728995639,0.1579690964198415,-0.8824113470497561,0.49393409769414853,0.8720863538096123,0.9315458016465443,0.21264018648050081,0.8565560398411453,0.6250974500787883,0.7214587753887044,0.20594173726824802,0
0.16613673785810149,-0.07740682610603622,0.012542063492114437,0.7348875185056395,-0.07697512437446319,-0.5426202140384216,0.5398966506668498,0.734618022809458,0.7663917437838274,-0.13994765497067224,0.5805705150241114,0.3033520252306856,0.45931894980682664,-0.0718318587190858,0
0.13891447756763145,-0.1657163745941618,-0.19769341089526496,0.4225739531521371,0.2751553865970692,-0.5950917083415541,0.4024552301271519,0.569226437074927,0.35269965747634485,-0.08985857443027381,0.30458499020711244,-0.09327409158658055,0.31390660885563626,-0.03233431207774807,0
0.043102796741321,-0.1832408375237215,-0.19769341089526496,0.30205655631148964,0.9491194652260386,-0.7514873272837859,0.33373451985730296,0.0735886655393153,-0.14437639941328423,-0.03927842447275705,0.34379184749307795,-0.24206927304786502,0.4448345174073877,-0.04550016095819398,0
-0.05270888408498945,-0.1657163745941618,-0.6409171166383554,0.08587554485809996,0.5975605946944076,-0.6470537706611038,0.5398966506668498,-0.03649339639439459,-0.2820944411489638,-0.4674909561516684,0.28498156156411214,-0.41550261767320446,0.4303500850079488,-0.16450910868140445,0
0.015613651546036502,-0.042357900246932444,-0.6409171166383554,0.1580921951050058,0.1579690964198415,-0.6210727395013058,0.4252133874242996,0.2663665203402906,-0.19924843166735895,-0.4674909561516684,0.20618346603835358,-0.3657431901066172,0.28465373557835777,-0.11158755926002217,0
0.0703250570318153,0.028083568391469894,-0.12761491943280515,0.6148390609523199,0.7147468848715832,-0.6735442338044382,0.24225565229028598,0.459144375141266,-0.06153038993167938,-0.06481403416005227,0.3833830857328361,0.10479741620281388,0.2701693031789189,-0.08525586149913035,0
-0.0665868991350268,-0.13032383181487886,-0.26777190235772474,0.47040576045850824,0.6855932224372907,-0.6735442338044382,0.15077678472326903,0.459144375141266,0.24187967076716096,0.010810656067641386,0.36377965708987076,0.15455684376940113,0.2264319975022015,-0.296942059184636,0
-0.2034988553018689,-0.3241237748005106,-0.874360403133443,-0.10685850222941067,-0.28219404229457395,-0.856430315889958,0.10481423175058813,0.2389802512738462,0.13159764515856767,-0.3668217256537532,0.028599465390078536,-0.4647789440012705,0.08073564807261048,-0.4691307102288274,0
-0.12129830462080561,-0.2890748489414068,-0.9212310824881945,-0.058557755635711715,-0.3696550295975557,-0.9868449036724382,0.15077678472326903,-0.17396172739450008,-0.4477864601121735,-0.6437848768772773,-0.010991772849679554,-0.7372480425213072,0.03699834239589311,-0.296942059184636,0
0.043102796741321,-0.09527490595577509,-0.5012151888528124,0.1820080987582127,0.30430904903141376,-0.9083923782095541,0.33373451985730296,-0.2566575202617655,-0.5026584923661993,-0.4424464158814469,0.22578689468135382,-0.34110502694256223,0.13895738614876676,-0.05866600983863989,0
0.0703250570318153,-0.1657163745941618,-0.17448559878755673,-0.03464185198250482,0.18712275885418608,-0.8039588215868719,0.5398966506668498,0.15628445840658076,-0.3375044345035313,-0.6688294171474989,0.2649937519673194,-0.04351466401999331,0.15344181854820568,-0.08525586149913035,0
-0.0390977539397423,-0.2715503860118627,-0.08119929521738874,-0.10685850222941067,-0.16443611167749692,-0.8039588215868719,0.4024552301271519,0.21159398220740178,-0.3375044345035313,-0.6943650268347494,0.3241884188500777,0.1791950069334561,0.24091642990164042,-0.20426480922234083,0
-0.08019802928027395,-0.05988236317647652,-0.10440710732509695,0.0614907019176079,0.04078280624261383,-1.0128259348322362,0.24225565229028598,-0.06387966546083902,0.021315619549925464,0.11147988656555659,0.6001739436671116,0.4270259422893939,0.5323091287608225,-0.04550016095819398,0
0.043102796741321,0.09852503702985661,-0.03432861586263715,0.1580921951050058,0.5095279669514725,-1.0128259348322362,0.5171384933696817,0.2389802512738462,0.435007705857408,0.48960333770402487,0.7777579443153866,0.4023877791253828,0.6197837401142572,0.13985433896641983,0
0.24833728853918907,-0.05988236317647652,0.19911467063245045,0.10979144851130684,0.5386816293858171,-0.6470537706611038,0.905812120934877,0.734618022809458,0.35269965747634485,0.1620600365230287,0.7973613729583868,0.50142353302008,0.5905308668369788,0.12668849008599742,0
0.3302709543154379,-0.13032383181487886,0.3624794656650782,0.08587554485809996,0.2751553865970692,-0.3862245950961899,0.8830539636377293,0.7620042918759024,0.6561097181752341,0.43902318774655275,0.8565560398411453,0.7492544683760178,0.7507116486659828,0.21936574004831605,0
0.17974786800334863,-0.05988236317647652,0.22232248274011726,0.013658894611194123,0.2460017241627246,-0.6210727395013058,0.7000962285036954,0.7072317537430624,1.0423657883556794,0.5902725682019401,0.8169648016013872,0.550699859348146,0.7362272162665698,0.2986189872305667,0
-0.08019802928027395,-0.1657163745941618,-0.15082273154051334,-0.15469030953582444,0.30430904903141376,-0.9343734093693521,0.6313755182338464,0.48706762987564256,0.40757168973037067,-0.06481403416005227,0.5017724194983527,0.12991868060534614,0.4740873906846662,0.10009863842548347,0
-0.08019802928027395,-0.1832408375237215,-0.10440710732509695,-0.010257009042012767,0.12824379354564755,-0.9608638725126402,0.5398966506668498,0.18367072747302518,-0.06153038993167938,-0.2155723451983659,0.24539032332431912,0.1791950069334561,0.2991381679777967,-0.15134325980095856,0
0.0703250570318153,0.010559105461910197,0.05895768770753085,0.22983990606458382,0.06993646867695841,-0.82993985274667,0.6773380712065475,0.2389802512738462,0.021315619549925464,-0.06481403416005227,0.3241884188500777,0.2782307608281094,0.2701693031789189,-0.1910989603418949,0
-0.13490943476605274,-0.09527490595577509,-0.4079288852826443,-0.15469030953582444,-0.13528244924315236,-0.8824113470497561,0.7456125430980111,0.2663665203402906,-0.19924843166735895,-0.6187403366070557,0.2649937519673194,-0.06863592842252557,0.10998852134991477,-0.2440205097632772,0
-0.4223444772449598,-0.5003992548565982,-0.874360403133443,-0.7319545722237433,-0.6629065752605495,-0.9608638725126402,0.6313755182338464,0.18367072747302518,-0.033556412704149274,-0.8957034878305798,0.028599465390078536,-0.3903813532706283,-0.03570782807967626,-0.27061036142376765,0
-0.3948553320496753,-0.44748224914775553,-0.8042819116709832,-0.4913887178298189,-0.4285339949061462,-0.7779777904270739,0.6086173609366986,0.5418401680085314,0.5732637086936293,-0.2155723451983659,0.14698879915559523,-0.14255041791469053,0.08073564807261048,-0.12501156204006672,0
-0.2034988553018689,0.010559105461910197,-0.6409171166383554,-0.15469030953582444,0.2751553865970692,-0.6735442338044382,0.5398966506668498,0.6245359608757969,0.35269965747634485,0.21264018648050081,0.5017724194983527,0.20431627133598837,0.3428754736545141,0.03401124012367876,0
-0.011875493649248002,0.08100057410031254,-0.5476308130681874,-0.2029910561295234,0.09909013111130298,-0.9083923782095541,0.26501380958743376,0.18367072747302518,-0.1718124155403216,-0.1149031147004507,0.42297432397262913,0.20431627133598837,0.3283910412550752,0.0074213884631882995,0
0.02922478169128365,-0.14819191166461773,-0.15082273154051334,-0.03464185198250482,-0.3405013671632631,-1.0912784602951202,0.0820560744534201,0.15628445840658076,0.048751635676962835,-0.3668217256537532,0.30458499020711244,0.20431627133598837,0.13895738614876676,-0.08525586149913035,0
-0.011875493649248002,-0.11279936888531916,0.05895768770753085,-0.13077440588261754,0.09909013111130298,-0.9083923782095541,0.2882182052629669,0.43175810607482157,0.3247256802487658,-0.4169108061941963,0.5017724194983527,0.4023877791253828,0.24091642990164042,0.0074213884631882995,0
0.015613651546036502,0.028083568391469894,-0.33785039382018456,-0.5153046214830258,0.1579690964198415,-0.7514873272837859,0.5171384933696817,0.3490623132075561,0.26985364799474,-0.2155723451983659,0.6397651819068697,0.4270259422893939,0.4740873906846662,0.08693278954506103,0
-0.09380915942552111,-0.05988236317647652,-0.6177093045306471,-0.323039513682843,-0.5748739475176664,-0.9343734093693521,0.49393409769414853,-0.06387966546083902,-0.11640242218575411,-0.08985857443027381,0.4029865143758363,0.37774961596132783,0.357359906053953,-0.08525586149913035,0
-0.3948553320496753,-0.34199185465024945,-0.6645799838854402,-0.058557755635711715,-0.6629065752605495,-1.1172594914549183,0.21949749499311794,-0.4494353750627409,-0.5306324695937783,-0.3417771853835763,0.04820289403307879,0.15455684376940113,-0.006738963280824257,-0.3764534602665322,0
-0.44983362244026864,-0.518267334706337,-0.9913095739506543,-0.5153046214830258,-0.3993803324718016,-1.1697309857580043,0.01333536418357117,-0.5321311679300064,-0.4752224762392109,-0.769498647645414,-0.08978986837543815,-0.291345599375975,-0.13766687183254991,-0.429375009687891,0
-0.29931053612817937,-0.5357917976358811,-1.4577410918014528,-0.9003037763707619,-0.5748739475176664,-1.0912784602951202,0.24225565229028598,-0.11918918926166004,-0.006120396577111905,-0.6437848768772773,0.04820289403307879,-0.3657431901066172,0.08073564807261048,-0.20426480922234083,0
-0.3676330717592053,-0.5357917976358811,-1.5278195832639128,-0.7797863795301571,-0.7800928654377772,-0.9868449036724382,0.6541336755310144,0.7620042918759024,0.6006997248206177,-0.13994765497067224,0.24539032332431912,-0.19230984548127777,0.25540086230107933,-0.25718635864369965,0
-0.435955607390207,-0.5887088033447394,-1.5278195832639128,-0.9481355836771757,-0.7509392030034326,-0.8824113470497561,0.8143332533678803,1.312951587212384,0.9041097855195069,0.1620600365230287,0.2649937519673194,-0.34110502694256223,0.12447295374935369,-0.5088864107697637,0
-0.24433224573758608,-0.4124333232886518,-1.597898074726414,-0.9003037763707619,-0.6629065752605495,-1.0652974291353223,0.4711759403970008,0.734618022809458,0.5732637086936293,0.11147988656555659,0.12700098955880243,-0.31598376253998606,0.03699834239589311,-0.38961930914695464,0
-0.13490943476605274,-0.1832408375237215,-1.2943762967688666,-0.2752077063764292,-0.45768765734043876,-1.3526170678435705,0.01333536418357117,-0.22927125119536992,-0.2546584250219264,-0.2155723451983659,0.12700098955880243,-0.04351466401999331,0.13895738614876676,-0.16450910868140445,0
-0.27182139093289487,-0.3595163175798091,-1.0609330102737788,-0.2029910561295234,-0.4285339949061462,-1.4570506244662063,-0.14686421365329472,-0.42204910599634526,-0.6683505113294579,-0.4674909561516684,0.24539032332431912,-0.11791225475063553,0.10998852134991477,-0.2440205097632772,0
-0.35402194161395817,-0.48287479192703847,-1.31803916401591,-0.6358220183236732,-0.6920602376948941,-1.3266360366837726,-0.16962237095044247,-0.2566575202617655,-0.5580684857208157,-0.8706589475603582,0.04820289403307879,-0.41550261767320446,-0.09392956615583255,-0.40278515802740056,0
-0.18962084025183157,-0.1832408375237215,-1.4345332796937862,-0.7080386685705791,-0.6337529128262569,-1.3526170678435705,-0.32982194878730836,-0.33935331312907985,-0.4752224762392109,-1.0719974085561887,-0.24738605942695535,-0.09327409158658055,-0.06496070135695471,-0.296942059184636,0
0.002002521400789353,0.028083568391469894,-1.2943762967688666,-0.4191720675829131,-0.5457202850833218,-1.5095221187693386,-0.3525801060844561,-0.22927125119536992,-0.4477864601121735,-0.7444541073751925,0.008996036747078284,0.2782307608281094,0.05176678327375848,-0.16450910868140445,0
-0.0390977539397423,-0.13032383181487886,-1.2711684846611584,-0.4913887178298189,-0.72178554056914,-1.3526170678435705,0.17353494202043707,0.18367072747302518,-0.3375044345035313,-0.7444541073751925,0.16659222779859548,-0.04351466401999331,-0.10869800703367208,-0.21768881200238538,0
-0.18962084025183157,-0.23615784323256414,-1.4814039590485377,-0.7080386685705791,-0.8681254931806603,-1.0128259348322362,0.3569389155328361,0.2389802512738462,-0.2546584250219264,-0.9207480281008014,-0.030595201492679806,-0.291345599375975,-0.21065705078654573,-0.310366061964704,0
-0.0665868991350268,0.028083568391469894,-1.4345332796937862,-0.5396894644235605,-0.7800928654377772,-1.0393163979755242,-0.03218095041074461,-0.2018849821289255,-0.30953045727600115,-0.5932047269198052,0.028599465390078536,-0.06863592842252557,0.00802947759704111,-0.12501156204006672,0
0.4124715049965012,0.45107599714203184,-1.0845958775208224,-0.2269069597827303,-0.5748739475176664,-1.0393163979755242,-0.03218095041074461,-0.2566575202617655,-0.11640242218575411,-0.3162415756962811,0.18619565644156078,0.10479741620281388,-0.006738963280824257,0.2325315889287385,0
0.877918778982782,0.7682344144749086,-0.874360403133443,-0.058557755635711715,-0.5748739475176664,-0.8824113470497561,0.21949749499311794,0.18367072747302518,0.3247256802487658,-0.5681601866495837,0.10739756091583713,0.12991868060534614,-0.07944513375639363,0.5105633388156945,0
1.3019988927237411,1.2970608546431557,-0.6177093045306471,0.4225739531521371,-0.4285339949061462,-1.2741645423806864,-0.12365981797774128,0.018816127406426433,-0.006120396577111905,-0.6943650268347494,0.20618346603835358,0.2782307608281094,0.2991381679777967,0.8149267864635188,0
1.9315803831673584,2.2660605695713456,-0.05753642797034536,1.3604525277873,-0.13528244924315236,-1.8752942829404247,-0.7189418147308687,-0.862377353731136,-0.8889145625466934,-0.6688294171474989,0.46218118125859464,0.47678536985602504,0.6197837401142572,1.2519813385142202,0
2.6297512941467915,2.8653284783779953,0.12903617916999063,1.6488501894875955,-0.19416141455169086,-1.6924082008549048,-0.8791413925677346,-0.8903006084655126,-0.6957865274564463,-0.7444541073751925,0.560967086381111,0.550699859348146,0.6924899105898524,1.6756118877848536,0
2.917186336625723,3.0062114156547843,-0.08119929521738874,1.3121517811935584,-0.45768765734043876,-1.4050885621466567,-0.6957374190553356,-0.22927125119536992,-0.30953045727600115,-0.8451233378731077,0.65936861054987,0.6004592869147333,0.9108924304950128,1.9007220882504037,0
3.0402202777425034,3.4292038444053463,-0.15082273154051334,1.504416888993784,-0.31134770472891854,-1.5355031499291367,-0.4672633693270062,-0.5869037060628952,-1.1648886071185454,-1.2733358695519743,0.6397651819068697,0.6004592869147333,1.042104347525165,2.019731035973614,0
3.396244740757251,3.9930792104326973,0.17590685852474222,1.6727660931408024,-0.19416141455169086,-1.3785980990033222,-0.14686421365329472,-1.2205467942666421,-1.5511446772990394,-1.4746743305478047,0.5805705150241114,0.897566548598825,1.0128514742478865,2.2845969369801242,0
3.8478139996934946,4.04599621614154,0.5959227521601245,1.5527176355874828,-0.5165666226490293,-1.1172594914549183,0.01333536418357117,-0.9450731465984015,-0.9991965881553356,-1.1726666390541038,0.6789720391928702,1.2941926654160911,1.216769561753608,2.6816376345902437,0
4.039437361346091,4.028128136291817,0.7356246799457088,1.817199393634614,-0.6629065752605495,-1.4830316556260044,-0.2611012385174594,-0.8349910846646915,-1.1094786137639778,-1.1476220987838823,0.8761594684841455,1.4178665824747994,1.50816226061279,2.946503535596754,0
4.148860172317649,4.539086496610325,0.8057031714081686,2.226114452175557,-0.5457202850833218,-1.8228227886373387,-0.4672633693270062,-0.9450731465984015,-1.054606581509903,-1.1977111793242807,1.1325415646581791,1.5666617639360838,1.7558176537952548,3.0260149366786266,0
4.518495765477644,5.085437399708116,1.248926877151259,2.5145121138758526,-0.19416141455169086,-1.6139556753920208,-0.12365981797774128,-0.22927125119536992,0.021315619549925464,-0.3918662659239748,1.6253179474094535,2.0125642070814598,2.134400955529445,3.30378853266596,0
4.723730257275487,5.155878868346519,1.50603303089339,2.8751264258230966,0.04078280624261383,-1.5095221187693386,0.03653975985910431,0.40437183700837714,0.435007705857408,0.33835395724863754,2.1573011874467287,2.38406905949615,2.5422371305409137,3.5686544336724704,0
4.586818301108645,5.014995931069714,1.248926877151259,3.019559726316908,-0.018096159065924683,-1.6399367065517725,-0.1923805282476105,0.18367072747302518,0.13159764515856767,0.13701549625280715,2.1772889970434863,2.4091903238987262,2.673165039092665,3.5423227359115788,0
4.655407721644461,5.102961862637676,1.3658760479684704,2.9717279190104944,0.04078280624261383,-1.6399367065517725,-0.12365981797774128,-0.11918918926166004,-0.1718124155403216,-0.16548326465796748,1.9997049963952114,2.483104813390847,2.585974436217631,3.515732884251088,0
4.847031083297082,5.120829942487399,1.5524486551088064,2.8512105221698896,0.06993646867695841,-1.5095221187693386,0.15077678472326903,-0.6422132298637162,-0.8060685530650885,-0.13994765497067224,2.0984909015177275,2.6565381580161866,2.673165039092665,3.648165834754343,0
4.819541938101798,4.944554462431343,1.3658760479684704,2.6106446677759654,0.12824379354564755,-1.3266360366837726,0.03653975985910431,-1.1931605252001978,-0.9991965881553356,-0.014233884202580163,2.3744764263347617,2.681659422418719,3.081001214104134,3.886441884100339,0
4.928964749073331,5.032520393999274,1.5756564672165145,2.706777221676078,0.48037430451717994,-1.0128259348322362,-0.14686421365329472,-1.3032425871339077,-0.8889145625466934,0.08643534629533504,2.532072617386279,2.780695176313416,3.459868524316751,4.071796384024976,0
5.011165299754419,5.050388473849028,2.0657508523143564,2.8512105221698896,0.4214953392085894,-0.9868449036724382,-0.0781435033834255,-1.4133246490676177,-1.3580166422087923,0.010810656067641386,2.551676046029244,2.879730930208113,3.488837389115603,4.005450831823549,0
4.764830532616019,4.592003502319168,2.0657508523143564,2.5145121138758526,-0.22331507698603545,-1.4570506244662063,-0.10090166068059354,-1.6608750420014329,-1.523708661172002,-0.1149031147004507,2.709272237080761,2.9541285209387556,3.5470591271917593,4.045206532364486,0
4.792052792906513,4.31023762776559,1.9961274159912734,2.226114452175557,-0.5457202850833218,-1.8228227886373387,-0.1923805282476105,-1.4407109181340132,-0.8889145625466934,0.23768472675072236,3.0444524287805534,3.3256333733534453,3.925926437404376,4.429081381094183,0
4.928964749073331,4.345286553624677,2.1358293437768165,2.2021985485223503,-0.28219404229457395,-1.6924082008549048,0.03653975985910431,-1.0003826703992225,-0.4752224762392109,0.6909417986998553,3.241639858071829,3.52370488114284,4.18806626298628,4.442505383874228,0
4.764830532616019,4.221928079277433,2.019335228098982,2.226114452175557,-0.25246873942038,-1.6399367065517725,0.1967393376959702,-1.1104647323329324,-0.8340425302926676,0.48960333770402487,3.0840436670203117,3.226597619458792,4.042369913556689,4.151307785106849,0
4.669018851789708,3.8168037303766096,1.9023860572817288,2.0577652480285384,-0.72178554056914,-1.9012753141002228,0.05929791715627235,-1.1931605252001978,-0.9991965881553356,-0.1149031147004507,2.8276615708462782,3.028526111669398,3.969379734602667,4.217395183408677,0
4.61430744630393,3.4113357645555915,1.8090997537116023,1.6488501894875955,-0.8389718307463158,-1.7703512943342525,-0.10090166068059354,-1.0830784632664878,-1.0271705653828658,-0.5681601866495837,2.5712794746722443,2.9541285209387556,3.969379734602667,4.257150883949614,0
4.491006620282334,3.3408942959172205,1.785891941603894,1.432200238746878,-0.4285339949061462,-1.4310695933064546,-0.21513868554475826,-1.496020441934883,-1.330580626081755,-0.4169108061941963,2.709272237080761,2.9294903577747005,4.115076084032258,4.402749683333291,0
4.833153068247045,3.5346942389028366,1.9961274159912734,1.6971509360812944,-0.22331507698603545,-1.7703512943342525,-0.2838593958146072,-1.8536528968024084,-1.0820425976369406,0.48960333770402487,3.5964234784145863,3.424669127248143,4.974485739731938,5.0646562819499445,0
5.0933658504354815,3.3233698329876606,2.275986326701736,1.7688986470409152,-0.5748739475176664,-2.188594952808471,-0.12365981797774128,-1.3032425871339077,-0.11640242218575411,1.4462065621426892,4.2667838618141705,4.044004915018858,5.673430605124163,5.4087754301387045,0
4.71011912713024,2.7065774612514515,2.1126215316691495,1.5288017319343186,-0.8972791556150048,-1.9797278395631068,0.17353494202043707,-0.7522952917974262,0.13159764515856767,1.4717421718299397,3.9907983369971367,3.8956928347960513,5.324100176667277,4.919057482566243,0
4.285772128484491,2.2660605695713456,1.6457349586789745,1.2160192272934882,-0.8972791556150048,-1.6399367065517725,0.21949749499311794,-0.917686877531957,-0.22668444779439634,0.9173247999658626,3.6360147166543446,3.4493072904121975,4.9307484340552215,4.693947282100694,0
4.217449592853465,1.9313776893089092,1.5292408430010982,0.9754533728995639,-0.8972791556150048,-1.6399367065517725,0.12801862742612127,-0.5595174369964507,0.40757168973037067,0.9929494901935563,3.832817764991862,3.6478618994400693,5.1054136482836645,4.958813183107179,0
4.121637912027155,1.5083852605583472,1.5993193344635581,0.6148390609523199,-0.9853117833578879,-1.7183892320146565,-0.009422793113576576,0.18367072747302518,0.8766737693924695,1.2448681011468588,3.714812812180103,3.7961739796628766,4.974485739731938,4.76029283430212,0
3.943625680519805,1.3145853175727156,1.155640573581091,0.13370735216451374,-1.1905307012779986,-1.6924082008549048,-0.23834308122029138,-0.03649339639439459,0.24187967076716096,1.119154330378722,3.3796326204803457,3.2763570470253796,4.78505208462563,4.482261084415164,0
3.8889142750340264,1.2262757690845743,0.5021813934506213,0.2059240024114196,-1.1613770388436542,-1.6924082008549048,-0.3070637914901403,-0.3667395821954754,0.021315619549925464,0.9929494901935563,3.537228811531828,2.8550927670440585,5.090929215884251,4.601270032138374,0
4.053048491491339,1.1207853745870682,0.7592875471927523,0.6148390609523199,-0.7800928654377772,-1.6399367065517725,-0.16962237095044247,-0.09126593452723462,0.13159764515856767,1.2198235608766372,3.951207098757379,3.15220002872815,5.411290779542285,4.8527119303648165,0
4.326872403825022,1.1912268432254705,1.5524486551088064,0.8071041687525453,-0.4874129602146847,-1.4050885621466567,-0.10090166068059354,-0.14657545832810448,0.10416162903153031,1.8243300132811575,4.463586910151654,3.7715358164988215,5.906601565907189,5.2234209302140675,0
4.409072954506086,1.2970608546431557,1.8559704330663538,0.8071041687525453,-0.4285339949061462,-1.3266360366837726,-0.12365981797774128,-0.5595174369964507,0.49041769921202444,2.2775870852302456,4.936759864259928,4.217438259644154,6.460134090348275,5.369019729597769,0
4.217449592853465,1.1737023802959263,1.6225271465712663,0.7831882650993385,-0.45768765734043876,-1.3785980990033222,0.03653975985910431,-0.4494353750627409,1.097237820609754,2.025668474276943,4.719969006325687,4.0937643425854455,6.256216002842527,5.024900581409008,0
3.9983370860055594,0.8740684258925938,1.4122916721838867,0.4225739531521371,-0.5748739475176664,-1.3785980990033222,0.24225565229028598,0.2389802512738462,1.3732118651816059,1.7487053230534637,4.207589194931413,3.52370488114284,5.731936351678746,4.786624532062988,0
3.7931025942077157,0.3806345285036295,1.2957975565060107,0.013658894611194123,-0.8681254931806603,-1.4050885621466567,0.1967393376959702,0.7072317537430624,1.483493890790199,1.975088324319471,4.384788814625895,3.4000309640841317,5.790158089754902,4.879301782025307,1
3.615090362700342,-0.042357900246932444,1.062354270010923,-0.03464185198250482,-1.1024980735351155,-1.5095221187693386,-0.10090166068059354,0.6798454846766179,1.2075198462183963,1.9500437840492495,4.483574719748411,3.6725000626041244,5.819126954553754,4.720537133761184,1
3.45095614624303,-0.2890748489414068,0.7824953593004604,-0.2752077063764292,-1.454628584506648,-1.8228227886373387,-0.42130081635430505,0.29428977507466725,0.13159764515856767,1.0936187206914714,3.8920124318746203,3.424669127248143,5.382321914743407,4.389583834452869,1
3.3140441900761877,-0.5708407234949849,0.7592875471927523,-0.6597379219768374,-1.6890011648610512,-2.267047478271355,-0.5355378412184697,-0.39412585126191985,-0.7232225435834837,0.2877738072911655,3.6360147166543446,3.028526111669398,5.032707477808095,4.310072433370996,1
3.3004330599309406,-0.6591502719831261,0.9458601543330882,-0.6114371753831386,-1.4837822469409925,-2.214575983968269,-0.42130081635430505,-1.1104647323329324,-1.0820425976369406,0.11147988656555659,3.7936109077058617,3.127561865564095,5.047191910207534,4.376159831672801,1
3.3276553202214108,-0.6412821921333872,0.9226523422253801,-0.323039513682843,-1.3665959567637649,-1.9272563452600209,-0.14686421365329472,-1.4407109181340132,-1.1374525909915079,0.3633984975188591,3.85280557458862,3.2763570470253796,5.324100176667277,4.376159831672801,1
3.1088096982783195,-0.8175576721894748,0.7356246799457088,-0.4435569105234478,-1.5129359093752852,-1.9532373764198188,-0.009422793113576576,-1.0551552085321114,-0.2546584250219264,0.8672357194254642,4.010401765640137,3.2512357826228033,5.4842809584962815,4.257150883949614,1
2.930797466770946,-0.8529502149687578,0.6655461884832491,-0.6114371753831386,-1.454628584506648,-2.058180365025991,0.01333536418357117,0.12889818934013633,1.4560578746632107,1.4967867121001612,4.207589194931413,3.176838191892161,5.411290779542285,4.190805331748163,1
2.889697191430414,-1.0113576151751065,0.6892090557302925,-0.5396894644235605,-1.2785633290208818,-1.7703512943342525,0.24225565229028598,1.202869525278674,2.20059603779662,1.874419093821556,4.148394528048654,3.028526111669398,5.469512517618441,4.084962232905422,1
2.6844626996325704,-1.4518745068552281,0.6655461884832491,-0.6836538256300444,-1.0150370862320819,-1.2741645423806864,0.5398966506668498,1.202869525278674,1.8143399676161258,2.050713014547165,4.049993003879895,2.829971502641526,5.542502696572438,3.846686183559403,1
2.4792282078347023,-1.4343500439256684,0.45576576923520484,-0.6836538256300444,-0.7509392030034326,-0.9343734093693521,0.5854129652611655,1.0374779395441431,1.8971859770977306,2.252051475542995,4.0300051942831026,2.904369093372168,5.265594430112694,3.6215759830938525,1
2.410638787298886,-1.1347160895223516,0.12903617916999063,-0.4435569105234478,-0.7509392030034326,-0.856430315889958,0.33373451985730296,1.1754832562122297,2.1182879894155078,2.1263377047748584,3.9316036701143786,2.9541285209387556,5.1054136482836645,3.515732884251088,1
2.2876048461821057,-1.310991569578439,-0.12761491943280515,-0.6597379219768374,-1.0150370862320819,-1.0393163979755242,0.0820560744534201,0.7620042918759024,1.4560578746632107,1.7987944035938621,3.8920124318746203,2.829971502641526,5.265594430112694,3.581820282552916,1
2.041270079043706,-1.8398180097466865,-0.011120803754928948,-1.2609180883179845,-1.2202560041521926,-1.3266360366837726,-0.009422793113576576,0.10151192027369188,0.8766737693924695,1.7487053230534637,3.85280557458862,2.6565381580161866,5.163919394838247,3.4362214831692155,1
1.8357687023410478,-2.1391083472298242,-0.10440710732509695,-1.5014839427119089,-1.3665959567637649,-1.5874652122486865,-0.03218095041074461,0.15628445840658076,1.1800838300913588,1.6225004828682534,3.6360147166543446,2.4091903238987262,4.887011128378504,3.012590933898582,1
1.6852456160289586,-2.2803349014267926,-0.5712936803152722,-1.6215324002652072,-1.6598475024267587,-1.6139556753920208,0.12801862742612127,0.514453898942087,1.4286218585361734,1.4211620218724677,3.4980219542458624,2.2357569792733867,4.770567652226191,2.9333376867163077,1
1.5894339352026723,-2.47413484441244,-0.6409171166383554,-1.9343149049060375,-1.718154827295396,-1.4310695933064546,0.37969707282998383,0.8447000847431678,1.5389038841448155,1.4462065621426892,3.576820049771586,2.359430896332095,4.610386870397187,3.1052681838609004,1
1.6033119502527098,-2.47413484441244,-0.15082273154051334,-2.0065315551529435,-1.1905307012779986,-1.3266360366837726,0.5171384933696817,1.0927874633449641,1.8143399676161258,1.6225004828682534,3.734416240823103,2.780695176313416,4.552165132321031,3.0921023349804546,1
1.6991236310790203,-2.2449423586475095,-0.05753642797034536,-1.7898816044122259,-0.7800928654377772,-1.4050885621466567,0.3569389155328361,1.0927874633449641,1.8423139448436558,1.7737498633236406,3.7936109077058617,2.879730930208113,4.741314778948913,2.9596693844771997,1
1.5622116749121782,-2.47413484441244,-0.6409171166383554,-1.9103990012528307,-1.073344411100771,-1.5614841810888884,0.4024552301271519,0.9827054014113031,1.290365855700001,1.4967867121001612,3.4584307160060694,2.359430896332095,4.639355735196039,2.6816376345902437,1
1.206454096802245,-3.0026176676605076,-0.8975682152411512,-2.55941097490037,-1.2785633290208818,-1.6399367065517725,0.7688169387735645,0.8447000847431678,1.0423657883556794,1.119154330378722,3.202048619832036,2.0869617978121022,4.2462880010624104,2.49628313466563,1
1.1925760817521833,-2.9146517360925457,-0.6645799838854402,-2.6555435288004827,-1.0150370862320819,-1.6139556753920208,0.7915750960707123,0.6519222299421925,1.4006478813085943,1.6480360925555486,3.4980219542458624,2.483104813390847,4.348247044815284,2.8140705850934986,1
1.3841994434048044,-2.6679347873980714,-0.6177093045306471,-2.2227125666063543,-0.8681254931806603,-1.6659177377115706,0.5854129652611655,0.5418401680085314,1.4006478813085943,2.1769178547323307,3.87240900323162,2.681659422418719,4.552165132321031,2.946503535596754,1
1.261165502288024,-2.7912932617453166,-0.7810740995632749,-2.2710133132000534,-0.8389718307463158,-1.4050885621466567,0.6086173609366986,0.8173138156767722,1.6212119325258787,2.075757554817386,3.8920124318746203,2.483104813390847,4.464690520967596,2.655305936829375,1
1.2200652269474923,-2.7737687988157567,-0.5244230009605205,-2.55941097490037,-0.8389718307463158,-1.0652974291353223,0.7688169387735645,1.4504199182125384,2.504544059596002,2.529505696183548,3.9907983369971367,2.780695176313416,4.639355735196039,2.7874807334330085,1
1.4527888639406206,-2.615017781689229,-0.15082273154051334,-2.415446613693886,-1.1024980735351155,-1.0393163979755242,0.9290165166104102,2.056676737349841,2.9731081781575592,3.0328518486730798,4.187601385334619,3.15220002872815,4.79953651702507,2.9862592361376903,1
1.3841994434048044,-2.615017781689229,-0.26777190235772474,-2.439362517347072,-1.2494096665865373,-0.9608638725126402,1.0892160944472558,2.3042271302836563,2.66969811745867,2.5795947767239915,4.089199861165861,2.8550927670440585,4.537396691443166,2.72139333513118,1
1.0831532707806502,-2.738376256036474,-0.26777190235772474,-2.631627625147276,-0.8389718307463158,-0.6210727395013058,1.3176901441756257,2.0840630064162364,2.3662880567598297,2.3276761657706886,3.8920124318746203,2.5575024041214895,4.377215909614161,2.5228729863261203,1
1.1242535461211818,-2.7737687988157567,-0.10440710732509695,-2.29492921685326,-0.5165666226490293,-0.4381866574157396,1.5238522749851726,1.9186714206817057,2.5319800757230393,2.6301749266814634,3.85280557458862,2.681659422418719,4.362731477214723,2.5757945357475025,1
1.2200652269474923,-2.7737687988157567,-0.36105820592789273,-2.150964855646755,-1.0150370862320819,-0.7779777904270739,1.5466104322823,1.8638988825488656,2.5319800757230393,2.529505696183548,3.6948250025833453,2.5328642409574345,4.144328957309562,2.49628313466563,1
1.0009527200995867,-2.9321761990221056,-0.4775523216057276,-2.6555435288004827,-1.5426612122495311,-1.1437499545982064,1.4323734074181556,1.6711210277478903,2.035441979933903,2.075757554817386,3.3600291918373455,2.2357569792733867,3.9404108698038147,2.3243526375210606,1
0.754617952961187,-3.161368684787036,-0.4079288852826443,-2.8238927329474803,-1.3665959567637649,-1.0393163979755242,1.3408945398511385,1.5331157110798037,1.566339900271853,1.7737498633236406,3.14323833390307,2.334792733168084,3.7654616470969455,2.231675387558742,1
0.6588062721348766,-3.267202696204721,-0.7342034202085234,-2.631627625147276,-1.073344411100771,-0.6735442338044382,1.3408945398511385,1.8638988825488656,2.2560060311511876,1.8994636340917774,3.241639858071829,2.38406905949615,3.6782710442219115,2.1389981375964235,1
0.5218943159680588,-3.319776084993369,-0.967646706703611,-2.7521450219879022,-1.1905307012779986,-0.6210727395013058,1.3864108544454747,2.4143091922173663,3.2765182388564487,2.4033008559983826,3.4388272873631043,2.2603951424374418,3.8966735641270978,2.0328968848540603,1
0.34414896936547523,-3.40808563348151,-0.827944778918068,-2.944410129788106,-1.3077169914552265,-0.82993985274667,1.3408945398511385,2.469618716018187,3.0010821553850895,2.655219466951685,3.418839477766311,2.334792733168084,3.925926437404376,1.953643637671786,1
0.26194841868441193,-3.461002639190353,-0.7810740995632749,-2.9204942261349207,-1.3665959567637649,-0.856430315889958,1.2494156722841216,1.8085893587479958,1.9800319865793354,2.2270069352727737,3.2220364294288286,2.310154570004029,3.6052808652679156,1.9007220882504037,1
0.24833728853918907,-3.3902175536317714,-0.6877877959931483,-2.8961093831944074,-1.5129359093752852,-0.8039588215868719,1.1119742517444238,1.2855653181459394,1.5937759163988414,1.698125173095947,3.1232505243063122,2.062323634648047,3.47435295671619,1.834376536048977,1
0.2894375638797207,-3.3902175536317714,-0.5712936803152722,-2.9204942261349207,-1.454628584506648,-0.8039588215868719,1.2494156722841216,1.7812030896816,2.22857001502415,1.7487053230534637,3.024849000137553,2.037202370245515,3.5180902623929073,1.8080448382881087,1
0.3577600995107224,-3.4785271021199127,-0.6877877959931483,-2.944410129788106,-1.2202560041521926,-0.82993985274667,1.477889722012451,2.221531337416391,2.5594160918500277,2.15138224504508,3.005245571494553,2.0869617978121022,3.47435295671619,1.7946208355080406,1
0.39886037485125403,-3.2318101534254224,-0.7342034202085234,-2.7521450219879022,-1.0150370862320819,-0.82993985274667,1.2721738295812897,1.7538168206151556,2.1182879894155078,2.1012931645046367,3.1232505243063122,1.8637690256201755,3.488837389115603,1.8475423849294228,1
0.4124715049965012,-3.0555346733693507,-0.6409171166383554,-2.6077117214940904,-0.9853117833578879,-0.7514873272837859,1.1347324090415918,1.8638988825488656,2.0903140121879775,1.849374553551379,2.965654333254795,1.6164211915027151,3.5180902623929073,1.7814549866275946,1
0.3713712296559695,-3.372693090702227,-0.5012151888528124,-2.7521450219879022,-0.8972791556150048,-0.6995252649641899,1.4323734074181556,2.2494545921507676,2.283442047278225,1.7737498633236406,2.6108707129120376,1.7647332717254782,3.2849193016098814,1.6358561872439172,1
0.39886037485125403,-3.2142856904958785,-0.5012151888528124,-2.5354950712471847,-0.6920602376948941,-0.6470537706611038,1.4551315647153236,1.6985072968143347,1.7869039514890885,1.6225004828682534,2.6108707129120376,2.0125642070814598,3.022779476027978,1.5961004867029809,1
0.48106092553231733,-2.4916593073419837,-0.6177093045306471,-2.1265800127062415,-0.8389718307463158,-0.6210727395013058,1.1119742517444238,1.202869525278674,1.3732118651816059,1.4462065621426892,2.630474141555003,1.987926043917405,2.8770831265983867,1.5034232367406621,1
0.3852492447060069,-2.3507763700651947,-0.7109956081008152,-2.2710133132000534,-1.0441907486664266,-0.6210727395013058,1.1347324090415918,1.6158115039470693,1.7869039514890885,1.1441988706489434,2.07850309192097,1.7647332717254782,2.4984998248641963,1.172469937432324,1
0.13891447756763145,-2.5270518501212824,-0.6877877959931483,-2.3193140597937734,-0.8972791556150048,-0.6735442338044382,1.3176901441756257,1.8638988825488656,1.9525959704522982,0.9679049499233346,1.8225053767007289,1.3932284193107445,2.076179217453289,0.9210280392058819,1
0.17974786800334863,-2.192025352938667,-0.5945014924229803,-1.765965700759019,-0.6045992503919124,-0.82993985274667,1.1119742517444238,1.478343172946915,1.8971859770977306,1.2448681011468588,2.1376977588037285,1.1453974839548067,2.090663649852728,1.0137052891682006,1
0.2755595488296591,-1.9453084042441768,-0.6645799838854402,-1.71766495416532,-0.72178554056914,-0.9343734093693521,0.8830539636377293,1.147560001477853,1.7869039514890885,1.3710729413320244,2.1180943301607282,1.170518748357339,2.2508444316817577,0.8812723386649456,1
-0.05270888408498945,-2.3683008329947546,-0.9444388945959027,-2.1987966629531472,-0.9270044584891988,-0.856430315889958,0.8830539636377293,0.8720863538096123,1.1526478139643215,0.7415219486573273,1.664524804695419,1.0709998932241644,2.003189038499293,0.5105633388156945,1
-0.4223444772449598,-2.7737687988157567,-1.0609330102737788,-2.3193140597937734,-0.6920602376948941,-0.856430315889958,0.7456125430980111,0.5971496918093525,0.5732637086936293,0.13701549625280715,1.36893585123542,0.848290222270715,1.697311907240672,0.483973487155204,1
-0.3812442019044282,-2.6679347873980714,-0.8511525910257347,-2.1265800127062415,-0.4874129602146847,-0.82993985274667,0.6313755182338464,0.7620042918759024,1.097237820609754,0.2627292670209439,1.408527089475178,0.9226878130013573,1.697311907240672,0.5900747398975672,1
-0.12129830462080561,-2.333251907135651,-0.8511525910257347,-1.9103990012528307,-0.5165666226490293,-0.6470537706611038,0.9972909885018939,1.2302557943451184,1.5937759163988414,0.5902725682019401,1.526532042286937,1.1453974839548067,1.7847865185941068,0.5105633388156945,1
-0.13490943476605274,-2.2803349014267926,-1.2242978053064066,-1.9103990012528307,-0.6920602376948941,-0.6470537706611038,1.3408945398511385,1.2855653181459394,1.0423657883556794,0.43902318774655275,1.3493324225924197,0.9473259761654123,1.6828274748412588,0.2986189872305667,1
-0.35402194161395817,-2.4036933757740373,-1.2711684846611584,-2.2470974095468677,-0.8098181683120231,-0.7514873272837859,1.2262112766086088,1.202869525278674,0.7663917437838274,0.11147988656555659,1.1325415646581791,0.7241332039734856,1.4644249549360726,0.2325315889287385,1
-0.21710998544711607,-2.2803349014267926,-0.8975682152411512,-2.1265800127062415,-0.3696550295975557,-0.5950917083415541,1.1119742517444238,1.2855653181459394,1.1526478139643215,0.4640677280167743,1.6057145187664532,1.0961211576266967,1.6390901691645414,0.6032405887780131,1
0.12503646251756984,-2.051142415661878,-0.6645799838854402,-1.5493157500183015,-0.13528244924315236,-0.490658151718872,0.9745328312047259,1.2302557943451184,1.483493890790199,1.1947790206064157,2.1968924256864866,1.591299927100139,2.163369820328323,0.8944381875453915,1
0.002002521400789353,-2.22741789571795,-0.827944778918068,-1.5976164966120217,-0.5748739475176664,-0.6995252649641899,0.7688169387735645,1.2855653181459394,1.7320319192350626,1.4967867121001612,2.1376977588037285,1.4178665824747994,2.265328864081171,0.6693279870798178,1
-0.28543252107811773,-2.5270518501212824,-1.1310115017362388,-2.1265800127062415,-0.9561581209235434,-0.856430315889958,0.7000962285036954,1.2855653181459394,1.4006478813085943,1.2198235608766372,1.8813156626296947,1.170518748357339,1.8722611299475673,0.4047202399729299,1
-0.28543252107811773,-2.5091837702715436,-1.1310115017362388,-2.2470974095468677,-0.7800928654377772,-0.856430315889958,0.7228543858008634,0.734618022809458,0.5178537153390128,0.766566488927549,1.8617122339866945,1.170518748357339,1.7265647805179762,0.44447594051386624,1
-0.28543252107811773,-2.47413484441244,-0.967646706703611,-2.078748205399849,-0.4874129602146847,-0.6210727395013058,0.7228543858008634,0.3490623132075561,0.40757168973037067,0.6909417986998553,1.9209069008694528,1.0709998932241644,1.974220173700415,0.5634848882370768,1
-0.29931053612817937,-2.5270518501212824,-0.9444388945959027,-2.03044745880615,-0.4285339949061462,-0.12488598754773961,0.9745328312047259,0.8447000847431678,1.3457758490545686,0.8922802596956411,1.9209069008694528,1.0463617300601094,2.0324419117765715,0.5237291876961404,1
-0.3401439265638965,-2.597493318759669,-1.2479606725534502,-2.174880759299962,-0.6629065752605495,-0.2033385130106237,0.9972909885018939,1.257642063411563,1.5389038841448155,0.6909417986998553,1.546519851883695,0.9473259761654123,1.66834304244182,0.3252088388910571,1
-0.4634447525854915,-2.6325422446187727,-1.4577410918014528,-2.150964855646755,-0.6920602376948941,-0.9343734093693521,0.5854129652611655,0.9000096085440377,0.9595197788740745,0.5146478779742464,1.2705343270666611,0.7241332039734856,1.50816226061279,0.2986189872305667,1
-0.35402194161395817,-2.315383827285912,-1.1778821810909903,-1.5737005929588148,-0.22331507698603545,-1.0128259348322362,0.4711759403970008,0.5971496918093525,0.9315458016465443,0.7916110291977259,1.7237194715781774,0.9226878130013573,1.814039391871411,0.5503190393566308,1
-0.0390977539397423,-2.0686668785914217,-0.7109956081008152,-1.3570506422180972,-0.25246873942038,-0.5426202140384216,0.7228543858008634,0.9827054014113031,1.290365855700001,1.0184850998808515,2.0392962346349695,1.4676260100414307,1.974220173700415,0.6429962893189495,1
-0.12129830462080561,-2.45661038148288,-0.6409171166383554,-2.03044745880615,-0.8972791556150048,-0.6210727395013058,0.8830539636377293,1.4504199182125384,1.3457758490545686,0.8672357194254642,1.7041160429352122,1.4922641732054416,1.66834304244182,0.37813038831243945,1
-0.4906670128759858,-2.897127273163002,-1.1778821810909903,-2.3910617707533515,-1.3665959567637649,-0.9868449036724382,0.7000962285036954,1.2302557943451184,1.1246738367367914,0.5652280279317186,1.2505465174699033,0.87292838543477,1.362465911183199,0.08693278954506103,1
-0.6139678388975808,-2.738376256036474,-1.5278195832639128,-2.1265800127062415,-1.454628584506648,-0.8824113470497561,0.5398966506668498,0.7899275466103278,0.9869557950011119,0.18710457679325024,1.0337556595356276,0.3033520252306856,1.2605068674303512,-0.04550016095819398,1
-0.5181561580712702,-2.47413484441244,-1.31803916401591,-1.9826156514997577,-1.073344411100771,-0.5686012451982198,0.9517746739075782,0.8173138156767722,0.9595197788740745,0.1620600365230287,1.0537434691324206,0.3526283515587516,1.2749912998297643,-0.018910309297703525,1
-0.5045450279260232,-2.3858252959242985,-0.8511525910257347,-1.6698331468589276,-0.5457202850833218,-0.5426202140384216,1.4323734074181556,1.0374779395441431,1.1526478139643215,0.539692418244468,1.2901377557096614,0.9473259761654123,1.4351720816587943,0.08693278954506103,1
-0.4223444772449598,-2.315383827285912,-0.6409171166383554,-1.4053513888117963,-0.4874129602146847,-0.6210727395013058,1.3176901441756257,1.147560001477853,1.4560578746632107,0.9173247999658626,1.4873251850009366,1.4429878468773756,1.653858610042381,0.31204299001061125,1
-0.3129216662734265,-2.174500890009107,-0.7342034202085234,-1.525399846365116,-0.5457202850833218,-0.33375310079310383,1.3636526971483067,1.368261111013205,1.4560578746632107,1.0184850998808515,1.644921376052454,1.4676260100414307,1.7703020861946936,0.4178860888533758,1
-0.4223444772449598,-2.0865349584411605,-0.7578662874556081,-1.5737005929588148,-0.3696550295975557,-0.04643346208485552,1.7982888776861827,1.5610389658141803,1.3457758490545686,0.9929494901935563,1.9013034722264874,1.24443323784946,1.7410492129173893,0.27228728946967484,1
-0.5045450279260232,-2.1215838843002643,-0.7578662874556081,-1.4053513888117963,-0.4285339949061462,-0.2812816064899714,1.5925729852550214,1.4230336491460938,1.4006478813085943,1.0685741804212499,1.8225053767007289,1.0463617300601094,1.7410492129173893,0.13985433896641983,1
-0.3129216662734265,-2.0686668785914217,-0.7810740995632749,-1.2848339919711915,-0.5748739475176664,-0.5166391828786701,1.2262112766086088,1.2855653181459394,1.5389038841448155,1.0435296401510283,1.5857267091696954,1.0709998932241644,1.7265647805179762,0.2325315889287385,1
-0.35402194161395817,-2.051142415661878,-0.6877877959931483,-1.2609180883179845,-0.6629065752605495,-0.5686012451982198,1.2262112766086088,1.257642063411563,1.2075198462183963,0.9679049499233346,1.7041160429352122,1.3932284193107445,1.6246057367651026,0.27228728946967484,1
-0.6550681142381124,-2.2449423586475095,-0.8042819116709832,-1.6459172432057207,-1.073344411100771,-0.82993985274667,0.9745328312047259,0.9273958776104333,0.6006997248206177,0.5652280279317186,1.4873251850009366,1.2941926654160911,1.376950343582638,-0.018910309297703525,1
-0.7372686649191758,-2.3683008329947546,-1.2242978053064066,-1.9582308085592444,-1.3374422943294204,-1.0128259348322362,0.8143332533678803,0.6245359608757969,0.7109817504292599,0.03634626575493661,0.8169648016013872,0.6004592869147333,1.0565887799246039,-0.23085466088283127,1
-0.627578969042828,-2.3683008329947546,-1.2010899931986985,-1.6459172432057207,-0.9853117833578879,-0.8824113470497561,1.066011698771743,0.8720863538096123,1.2075198462183963,-0.08985857443027381,0.6789720391928702,0.4023877791253828,1.042104347525165,-0.15134325980095856,1
-0.6003567087523336,-2.315383827285912,-0.7578662874556081,-1.4775680390587234,-0.7509392030034326,-0.5686012451982198,1.2034531193114408,1.202869525278674,1.097237820609754,-0.014233884202580163,1.0337556595356276,0.7492544683760178,1.1585478236774776,-0.12501156204006672,1
-0.6139678388975808,-2.2624668215770534,-0.7342034202085234,-1.693749050512113,-0.8972791556150048,-0.33375310079310383,1.066011698771743,1.0374779395441431,0.9315458016465443,0.23768472675072236,1.1521449933011445,0.7985307947041278,1.1878006969547559,-0.13817741092051264,1
-0.5045450279260232,-2.22741789571795,-0.827944778918068,-1.6698331468589276,-0.7800928654377772,-0.33375310079310383,1.1119742517444238,0.8720863538096123,1.1800838300913588,0.766566488927549,1.36893585123542,0.87292838543477,1.3479814787837858,0.13985433896641983,1
-0.44983362244026864,-2.4036933757740373,-0.6645799838854402,-1.5737005929588148,-0.7509392030034326,-0.5166391828786701,1.2494156722841216,0.8720863538096123,1.3457758490545686,1.0184850998808515,1.644921376052454,1.2695545022520363,1.5226466930122289,0.20594173726824802,1
-0.6550681142381124,-2.5445763130508263,-0.6877877959931483,-1.6459172432057207,-0.9270044584891988,-0.5950917083415541,1.3408945398511385,1.0374779395441431,1.483493890790199,0.6658972584296338,1.5069286136439368,1.2941926654160911,1.3187286055064815,-0.12501156204006672,1
-0.8055912005502016,-2.5091837702715436,-0.8975682152411512,-1.6698331468589276,-0.7800928654377772,-0.4122056262559879,1.477889722012451,1.312951587212384,1.483493890790199,0.41397864747633123,1.1521449933011445,0.9226878130013573,1.0128514742478865,-0.27061036142376765,1
-0.6686792443833596,-2.5270518501212824,-0.8511525910257347,-1.693749050512113,-0.5748739475176664,-0.15086701870753763,1.5466104322823,1.478343172946915,1.4006478813085943,0.5652280279317186,1.1717484219441447,0.897566548598825,1.0128514742478865,-0.11158755926002217,1
-0.6003567087523336,-2.45661038148288,-0.7342034202085234,-1.6215324002652072,-0.6045992503919124,-0.09839552440445157,1.5466104322823,1.6431977730134648,1.9525959704522982,0.8672357194254642,1.3885392798784202,1.1207593207907516,1.231253994153047,0.020845391243232845,1
-0.696168389578644,-2.297859364356352,-0.7578662874556081,-1.525399846365116,-0.4874129602146847,-0.15086701870753763,1.477889722012451,1.6711210277478903,2.2560060311511876,0.8922802596956411,1.408527089475178,1.0961211576266967,1.362465911183199,0.03401124012367876,1
-0.5181561580712702,-2.1391083472298242,-0.7109956081008152,-1.2848339919711915,-0.45768765734043876,-0.3077720696333058,1.1347324090415918,0.9827054014113031,1.0698018044827167,0.6153171084721616,1.3297289939494195,1.0961211576266967,1.2749912998297643,0.04717708900412467,1
-0.28543252107811773,-1.910259478385073,-0.38426601803560095,-0.9242196800239688,-0.6337529128262569,-0.4641676885755376,0.8143332533678803,0.3490623132075561,0.2144436546401725,0.48960333770402487,1.4873251850009366,1.4178665824747994,1.3332130379059206,0.16644419062693377,1
-0.3401439265638965,-1.8044254669673878,-0.31418752657314114,-0.9003037763707619,-0.5748739475176664,-0.4641676885755376,1.0204953841774271,0.5418401680085314,0.7938277599108647,0.38893410720610966,1.5661232805266951,1.4922641732054416,1.4499405225366337,0.20594173726824802,1
-0.4634447525854915,-2.1215838843002643,-0.6877877959931483,-1.3570506422180972,-0.5748739475176664,-0.4641676885755376,1.4096152501209875,1.2302557943451184,1.1526478139643215,0.18710457679325024,1.1125537550613862,1.0961211576266967,1.202285129354195,-0.005744460417257613,1
-0.5045450279260232,-2.3858252959242985,-0.8511525910257347,-1.4775680390587234,-0.5748739475176664,-0.3077720696333058,1.4551315647153236,1.5610389658141803,0.9041097855195069,0.18710457679325024,0.7185632774326283,0.9226878130013573,0.8671551248182955,-0.13817741092051264,1
-0.5456453032665548,-2.3858252959242985,-0.6877877959931483,-1.3814354851586106,-0.6337529128262569,-0.04643346208485552,1.3408945398511385,1.257642063411563,0.9869557950011119,0.11147988656555659,0.7777579443153866,1.0217235668960545,0.7214587753887044,-0.09842171037957627,1
-0.4906670128759858,-2.1391083472298242,-0.5012151888528124,-1.2848339919711915,-0.8098181683120231,-0.17684804986733565,1.3636526971483067,0.9000096085440377,1.2354938234459263,0.010810656067641386,0.8169648016013872,1.0217235668960545,0.6924899105898524,-0.005744460417257613,1
-0.1485205649112999,-1.7164595353994414,-0.24456409025001655,-0.828087126123856,-0.5165666226490293,-0.22931954417042172,1.3408945398511385,0.9547821466768778,1.1526478139643215,0.2627292670209439,0.8957628971271108,1.1951569115213938,0.9691141685711692,0.3252088388910571,1
0.24833728853918907,-1.540184055343354,-0.08119929521738874,-0.6114371753831386,-0.04724982150026926,0.11047158884091264,1.3636526971483067,1.202869525278674,1.0698018044827167,0.48960333770402487,1.230943088826903,1.5666617639360838,1.3914347759820769,0.7488393881616906,1
0.5768726063586278,-1.3993011180665647,0.19911467063245045,-0.7797863795301571,-0.07697512437446319,0.058000094537826584,1.3176901441756257,1.3956473800796494,1.1526478139643215,0.4640677280167743,1.5857267091696954,1.8144926992920656,1.6101213043656637,1.0797926874700288,1
0.946241314613808,-1.0642746208839493,0.7124168678380006,-0.3952561639297488,-0.22331507698603545,-0.22931954417042172,1.1574905663387598,1.5057294420133593,1.0423657883556794,0.6909417986998553,1.9604981391092458,2.1613593885427447,1.8722611299475673,1.3578244373569612,1
1.0967644009258972,-1.0642746208839493,0.8525738507629202,-0.010257009042012767,-0.3696550295975557,-0.2033385130106237,1.2721738295812897,1.0100916704776988,0.6561097181752341,0.7916110291977259,2.1573011874467287,2.458466650226792,2.0614107765754492,1.4107459867783436,1
1.0284418652948712,-1.2405501009400368,0.6655461884832491,-0.37134026027654193,-0.6045992503919124,-0.2812816064899714,1.3636526971483067,0.6245359608757969,0.7938277599108647,0.48960333770402487,1.9604981391092458,2.310154570004029,1.8722611299475673,1.3709902862374073,1
1.1106424159759347,-0.9233916836071602,0.6655461884832491,-0.5153046214830258,-0.6629065752605495,-0.3862245950961899,0.9972909885018939,0.9547821466768778,1.2075198462183963,0.23768472675072236,1.6253179474094535,2.1613593885427447,1.7992709509935456,1.5431789372815985,1
1.3978105735500514,-0.7646406664806322,0.6892090557302925,-0.2508228634359372,-0.6337529128262569,-0.2553005753302197,0.7228543858008634,1.0100916704776988,0.8212637760379021,0.11147988656555659,1.664524804695419,2.1613593885427447,1.974220173700415,1.701943585545722,1
1.4800111242311147,-0.9938331522455625,0.6423383763755408,-0.2991236100296361,-0.6629065752605495,-0.09839552440445157,0.9517746739075782,0.43175810607482157,0.435007705857408,0.061390806025113494,1.7237194715781774,1.9135284531867627,1.8574926890697019,1.569768788942089,1
1.425299718745336,-0.8000332092599152,0.7356246799457088,-0.2752077063764292,-0.3696550295975557,-0.12488598754773961,1.066011698771743,0.3764485822740005,0.8492377532654323,0.1620600365230287,1.5661232805266951,1.641059354666726,1.6828274748412588,1.5034232367406621,1
1.6580233557384885,-0.4124333232886518,1.1793034408281757,0.446489856805344,-0.25246873942038,-0.490658151718872,1.043253541474575,0.7072317537430624,0.7938277599108647,0.03634626575493661,1.7237194715781774,2.0125642070814598,1.82852382427085,1.7682891377471721,1
1.8496467173911095,-0.4653503289974944,1.5292408430010982,0.6626708682587337,-0.5457202850833218,-0.8824113470497561,1.2262112766086088,0.5971496918093525,-0.19924843166735895,-0.29119703542605957,1.9013034722264874,2.483104813390847,1.9012299947464193,1.9270537860112955,1
1.7263458913694902,-0.6766747349126858,1.1793034408281757,0.1820080987582127,-0.5457202850833218,-0.5950917083415541,1.477889722012451,0.32167604414111167,-0.5306324695937783,-0.4674909561516684,1.5857267091696954,2.4091903238987262,1.7265647805179762,1.7814549866275946,1
1.5758228050574252,-0.6941991978422298,0.7592875471927523,-0.03464185198250482,-0.13528244924315236,-0.07241449324465354,1.477889722012451,0.3764485822740005,0.1595716223860978,-0.5180711061091405,1.2705343270666611,1.987926043917405,1.6246057367651026,1.5829346378225349,1
1.438910848890583,-0.9587842263864588,0.572259884913081,-0.2991236100296361,-0.45768765734043876,0.006038032218230541,1.3864108544454747,0.5971496918093525,0.6006997248206177,-0.5180711061091405,1.408527089475178,1.7154569453973683,1.6246057367651026,1.4107459867783436,1
1.3019988927237411,-1.258074563869581,0.05895768770753085,-0.8041712224706492,-0.8972791556150048,-0.15086701870753763,1.3176901441756257,0.6519222299421925,0.49041769921202444,-0.2155723451983659,1.4477339467611785,1.690335680994836,1.7120803481185374,1.45050168731928,1
1.438910848890583,-0.9409161465367198,0.08216549981519766,-0.5875212717299316,-0.28219404229457395,-0.07241449324465354,1.2034531193114408,0.6519222299421925,0.5452897314660502,-0.03927842447275705,1.4281305181181783,1.9381666163508178,1.7992709509935456,1.6624460389044076,1
1.6580233557384885,-0.6412821921333872,0.6655461884832491,-0.03464185198250482,0.2460017241627246,0.21490514546359474,1.2721738295812897,0.6798454846766179,0.6561097181752341,-0.1149031147004507,1.6057145187664532,2.1859975517067993,1.7265647805179762,1.7285334372062358,1
1.5894339352026723,-0.8175576721894748,0.40889508988045326,-0.2752077063764292,-0.22331507698603545,0.2673766397666808,1.4096152501209875,0.6245359608757969,0.6006997248206177,0.03634626575493661,1.6253179474094535,2.1367212253786896,1.6101213043656637,1.4770915389797703,1
1.4800111242311147,-0.9587842263864588,0.17590685852474222,-0.7797863795301571,-0.5748739475176664,-0.17684804986733565,1.3408945398511385,0.40437183700837714,0.18700763851313515,0.13701549625280715,1.6057145187664532,2.0125642070814598,1.6101213043656637,1.2385573357341522,1
1.6033119502527098,-0.8879991408278616,0.572259884913081,-0.6836538256300444,-0.3696550295975557,-0.5686012451982198,1.0892160944472558,-0.06387966546083902,-0.392376466757606,-0.13994765497067224,1.7237194715781774,2.0869617978121022,1.7265647805179762,1.4107459867783436,1
1.6991236310790203,-0.8704746778983175,0.45576576923520484,-0.3952561639297488,-0.31134770472891854,-0.33375310079310383,0.9290165166104102,-0.3667395821954754,-0.4752224762392109,-0.3162415756962811,1.7041160429352122,1.8637690256201755,1.843008256670263,1.6226903383634712,1
1.3978105735500514,-1.0467501579544052,-0.15082273154051334,-0.7319545722237433,-0.5748739475176664,0.03201906337802856,1.1119742517444238,-0.2018849821289255,-0.2546584250219264,-0.3162415756962811,1.2705343270666611,1.1951569115213938,1.6101213043656637,1.2519813385142202,1
0.9598524447590552,-1.3814330382168258,-0.5712936803152722,-1.4531831961181887,-0.8098181683120231,0.2673766397666808,1.2949319868784577,-0.06387966546083902,-0.30953045727600115,-0.5932047269198052,0.8169648016013872,0.7985307947041278,1.202285129354195,0.8017609375830729,1
0.9190190543233137,-1.5226595924138098,-0.6877877959931483,-1.5737005929588148,-0.8389718307463158,0.476243753012045,1.4096152501209875,0.18367072747302518,0.021315619549925464,-0.6943650268347494,0.8761594684841455,0.87292838543477,1.1585478236774776,0.8944381875453915,1
1.0967644009258972,-1.2934671066488794,-0.31418752657314114,-1.237002184664799,-0.5748739475176664,0.34531973324602855,1.4323734074181556,0.7072317537430624,0.8766737693924695,-0.2155723451983659,1.2113396601839028,1.1453974839548067,1.3332130379059206,1.0797926874700288,1
1.1242535461211818,-1.0467501579544052,0.012542063492114437,-1.0203522339240816,-0.3993803324718016,0.11047158884091264,1.2721738295812897,0.7620042918759024,0.9595197788740745,0.010810656067641386,1.36893585123542,1.3685902561467334,1.3479814787837858,1.1461382396714557,1
1.261165502288024,-0.9233916836071602,-0.011120803754928948,-0.8041712224706492,-0.28219404229457395,0.24088617662339276,1.1574905663387598,0.18367072747302518,0.35269965747634485,-0.014233884202580163,1.5069286136439368,1.5169023363694967,1.4351720816587943,1.3312345856964707,1
1.370588313259557,-0.8354257520392138,0.08216549981519766,-0.6114371753831386,-0.16443611167749692,0.29335767092647885,1.2262112766086088,-0.06387966546083902,0.40757168973037067,0.3633984975188591,1.7633107098179706,1.641059354666726,1.6828274748412588,1.4107459867783436,1
1.1789649516069605,-1.0821427007336881,0.10582836706228244,-0.876387872717555,-0.3993803324718016,-0.07241449324465354,1.0892160944472558,-0.14657545832810448,0.49041769921202444,0.3633984975188591,1.7437072811749703,1.591299927100139,1.6390901691645414,1.2385573357341522,1
1.0695421406354029,-1.2759426437193353,-0.05753642797034536,-1.2848339919711915,-0.8098181683120231,-0.2553005753302197,0.837091410665028,-0.2018849821289255,0.1595716223860978,-0.19052780492818902,1.4477339467611785,1.5666617639360838,1.376950343582638,1.1195483880109651,1
1.1789649516069605,-1.1347160895223516,-0.011120803754928948,-1.3331347385648904,-0.8972791556150048,-0.12488598754773961,1.0204953841774271,0.40437183700837714,0.435007705857408,-0.1149031147004507,1.3097411843526616,1.6656975178307811,1.3042441731070686,1.172469937432324,1
1.1653538214617134,-1.1701086323016345,0.03574987559982264,-1.213086281011592,-0.72178554056914,-0.0204524309250575,1.3864108544454747,0.9273958776104333,0.7663917437838274,0.1620600365230287,1.36893585123542,1.5666617639360838,1.3479814787837858,1.1195483880109651,1
1.0831532707806502,-1.205501175080933,0.03574987559982264,-1.3570506422180972,-0.7800928654377772,-0.0204524309250575,1.2034531193114408,0.569226437074927,0.2144436546401725,-0.2661524951558827,1.36893585123542,1.4178665824747994,1.362465911183199,1.0137052891682006,1
1.0695421406354029,-1.1347160895223516,0.05895768770753085,-1.3570506422180972,-0.9561581209235434,-0.2033385130106237,0.9290165166104102,0.3490623132075561,-0.14437639941328423,-0.5932047269198052,1.2901377557096614,1.4178665824747994,1.3042441731070686,1.1195483880109651,1
1.0967644009258972,-1.1701086323016345,0.03574987559982264,-1.0686529805177805,-0.7800928654377772,-0.2033385130106237,1.1119742517444238,0.7620042918759024,0.3247256802487658,-0.3162415756962811,1.2705343270666611,1.5169023363694967,1.1730322560768907,1.172469937432324,1
1.0967644009258972,-1.1525841693720904,-0.011120803754928948,-0.9725204266176677,-0.31134770472891854,0.058000094537826584,1.3408945398511385,0.8447000847431678,0.2972896641217774,-0.014233884202580163,1.3493324225924197,1.641059354666726,1.2605068674303512,1.1327142368913876,1
1.0284418652948712,-1.0113576151751065,0.012542063492114437,-1.0925688841709873,-0.22331507698603545,0.21490514546359474,1.3176901441756257,0.48706762987564256,0.021315619549925464,0.11147988656555659,1.4677217563579363,1.6656975178307811,1.50816226061279,1.2385573357341522,1
0.8640407639327446,-1.1876330952311942,-0.03432861586263715,-1.2609180883179845,-0.4285339949061462,0.34531973324602855,1.4323734074181556,0.7620042918759024,0.8492377532654323,0.2877738072911655,1.5069286136439368,1.5169023363694967,1.4644249549360726,1.2122256379732839,1
0.7135176776206554,-1.4697425867049672,-0.15082273154051334,-1.4775680390587234,-0.5457202850833218,0.5546962784749291,1.7068100101191659,1.368261111013205,1.6766219258804462,0.48960333770402487,1.5069286136439368,1.4178665824747994,1.4062032168599163,0.9076040364258374,1
0.7410068228159642,-1.346384112357722,-0.17448559878755673,-1.4531831961181887,-0.45768765734043876,0.5282058153315947,1.8897677452531998,1.368261111013205,1.3457758490545686,0.5902725682019401,1.546519851883695,1.5169023363694967,1.5663839986889463,0.8944381875453915,1
0.9326301844685608,-1.0821427007336881,0.012542063492114437,-1.0203522339240816,-0.3993803324718016,0.39779122754916096,1.7982888776861827,1.0648642086105877,0.9041097855195069,0.6153171084721616,1.546519851883695,1.7647332717254782,1.5518995662895074,1.1195483880109651,1
1.0420529954401185,-1.0467501579544052,0.26919316209491023,-0.9003037763707619,-0.45768765734043876,0.2673766397666808,1.5698148279578534,1.0374779395441431,1.1246738367367914,0.5902725682019401,1.4873251850009366,1.9135284531867627,1.3479814787837858,1.053460989709137,1
0.877918778982782,-1.3285160325079832,0.17590685852474222,-1.2609180883179845,-0.6629065752605495,-0.0204524309250575,1.5010941176880044,1.1201737324114087,0.9869557950011119,0.3633984975188591,1.36893585123542,1.542023600772073,1.1878006969547559,0.8283507892435633,1
0.590483736503875,-1.6281499869113158,-0.15082273154051334,-1.5493157500183015,-0.7509392030034326,-0.09839552440445157,1.4323734074181556,0.8447000847431678,0.2972896641217774,0.03634626575493661,1.092950326418386,1.24443323784946,1.0273359066473253,0.7222495365012,1
0.4946720556775645,-1.5226595924138098,-0.19769341089526496,-1.525399846365116,-0.72178554056914,0.08449055768111463,1.3408945398511385,0.8720863538096123,0.26985364799474,-0.13994765497067224,0.9157507067239036,1.3188308285801023,0.9401453037722913,0.6298304404385036,1
0.617705996794345,-1.1701086323016345,0.03574987559982264,-1.237002184664799,-0.45768765734043876,0.11047158884091264,1.4323734074181556,1.3956473800796494,1.3178018718269895,0.061390806025113494,1.1917362315409374,1.4178665824747994,1.1003260856013213,0.6561621381993719,1
0.7135176776206554,-1.0996671636632478,0.17590685852474222,-1.0686529805177805,-0.28219404229457395,0.08449055768111463,1.6153311425521488,1.5610389658141803,1.6491859097534578,0.43902318774655275,1.3297289939494195,1.3439520929826785,1.231253994153047,0.8149267864635188,1
0.590483736503875,-1.3639085752872817,0.012542063492114437,-1.3092188349117049,-0.3696550295975557,0.39779122754916096,1.7982888776861827,1.312951587212384,0.6835457343022225,0.18710457679325024,1.0337556595356276,1.0463617300601094,1.1292949504001732,0.7754292398222045,1
0.6040948666491222,-1.258074563869581,0.012542063492114437,-1.3092188349117049,-0.5165666226490293,0.5806773096347271,1.8670095879560318,1.257642063411563,0.35269965747634485,-0.3668217256537532,0.9549575640098691,1.0961211576266967,1.0858416532018822,0.8283507892435633,1
0.9598524447590552,-0.7471162035510726,0.3624794656650782,-0.7558704758769502,-0.3405013671632631,0.29335767092647885,1.7527725630918873,1.1201737324114087,1.0698018044827167,-0.014233884202580163,1.408527089475178,1.641059354666726,1.3187286055064815,1.1593040885519015,1
1.2200652269474923,-0.5708407234949849,0.8289109835158769,-0.5153046214830258,0.04078280624261383,0.24088617662339276,1.5010941176880044,0.7620042918759024,1.0143918111281491,0.48960333770402487,1.7437072811749703,2.037202370245515,1.5518995662895074,1.2519813385142202,1
1.0967644009258972,-0.8175576721894748,0.7824953593004604,-0.7080386685705791,0.04078280624261383,0.39779122754916096,1.4323734074181556,0.6519222299421925,0.35269965747634485,0.33835395724863754,1.6057145187664532,1.8144926992920656,1.4933938197349506,1.0137052891682006,1
0.9326301844685608,-0.9587842263864588,0.31560878631028527,-0.7319545722237433,-0.28219404229457395,0.4237722587089126,1.6612936955248703,0.9273958776104333,0.6835457343022225,0.313309416978416,1.5069286136439368,1.591299927100139,1.4351720816587943,1.053460989709137,1
0.9326301844685608,-0.9233916836071602,0.05895768770753085,-0.7797863795301571,-0.22331507698603545,0.6066583407944788,1.7755307203890147,1.147560001477853,1.2075198462183963,0.539692418244468,1.546519851883695,1.7154569453973683,1.4206876492593552,1.066626838589583,1
0.7957182283017188,-1.0821427007336881,0.012542063492114437,-0.9481355836771757,0.1579690964198415,0.8420159171831311,1.6153311425521488,1.1201737324114087,0.7384177665562973,0.1620600365230287,1.2901377557096614,1.542023600772073,1.1003260856013213,0.7222495365012,1
0.6315840118444066,-1.0642746208839493,-0.05753642797034536,-0.828087126123856,0.2460017241627246,0.815525454039843,1.4323734074181556,0.9273958776104333,0.18700763851313515,-0.49253549642189,0.9353541353669038,1.0463617300601094,0.8089333867421392,0.5766507371174991,1
0.7821070981564958,-0.5708407234949849,-0.08119929521738874,-0.4913887178298189,0.18712275885418608,0.476243753012045,1.3176901441756257,0.7899275466103278,0.7938277599108647,-0.49253549642189,0.9353541353669038,0.848290222270715,0.8234178191415781,0.6561621381993719,1
0.946241314613808,-0.39490886035909206,-0.011120803754928948,-0.4913887178298189,0.12824379354564755,0.16243365116050867,1.2034531193114408,0.8173138156767722,1.2629298395729638,-0.014233884202580163,1.1125537550613862,1.0961211576266967,0.8964079980955739,0.6959178387403318,1
0.8232073734970276,-0.7646406664806322,0.03574987559982264,-0.9003037763707619,-0.28219404229457395,0.2673766397666808,1.3176901441756257,1.312951587212384,1.097237820609754,0.313309416978416,1.2113396601839028,1.2695545022520363,1.0128514742478865,0.7754292398222045,1
0.7135176776206554,-0.9233916836071602,-0.011120803754928948,-1.0447370768645736,-0.4874129602146847,0.5022247841717967,1.5698148279578534,1.6431977730134648,1.2075198462183963,0.3633984975188591,1.3297289939494195,1.219795074685449,1.0710732123240427,0.8283507892435633,1
0.7821070981564958,-0.5887088033447394,0.03574987559982264,-0.6836538256300444,-0.16443611167749692,0.21490514546359474,1.4323734074181556,0.8447000847431678,0.7109817504292599,0.11147988656555659,1.2505465174699033,1.1951569115213938,0.9983670418484476,0.8149267864635188,1
0.7957182283017188,-0.42995778621819586,0.08216549981519766,-0.5153046214830258,-0.04724982150026926,-0.07241449324465354,1.066011698771743,-0.28404378932820995,-0.5580684857208157,-0.3162415756962811,0.9945488022496621,1.219795074685449,0.8381862600194177,0.7356735392812681,1
0.7410068228159642,-0.7120672776919688,-0.03432861586263715,-0.9003037763707619,-0.22331507698603545,0.21490514546359474,1.1806949620142726,-0.14657545832810448,-0.5855045018478041,-0.49253549642189,0.7973613729583868,1.1951569115213938,0.6050152992363919,0.6561621381993719,1
0.7957182283017188,-1.0467501579544052,-0.17448559878755673,-1.1408696307646862,-0.3993803324718016,0.450262721852247,1.6153311425521488,0.7072317537430624,0.35269965747634485,-0.4674909561516684,0.7777579443153866,1.1453974839548067,0.5612779935596744,0.7090836876207541,1
0.9190190543233137,-0.8175576721894748,0.08216549981519766,-0.9003037763707619,-0.45768765734043876,0.31933870208627685,1.5925729852550214,0.9547821466768778,0.435007705857408,-0.543115646379362,0.7973613729583868,1.0961211576266967,0.7507116486659828,0.8546824870044551,1
1.0967644009258972,-0.21863338030300444,0.572259884913081,-0.6114371753831386,-0.16443611167749692,0.29335767092647885,1.3176901441756257,0.8447000847431678,0.46298168308498705,-0.3918662659239748,0.8957628971271108,1.0961211576266967,0.7944489543427002,1.0137052891682006,1
1.425299718745336,0.028083568391469894,0.7824953593004604,-0.323039513682843,0.1579690964198415,0.450262721852247,1.4323734074181556,0.9827054014113031,1.290365855700001,-0.03927842447275705,1.230943088826903,1.4178665824747994,0.9253768628944518,1.3312345856964707,1
1.6580233557384885,-0.006965357467633877,0.8289109835158769,-0.15469030953582444,0.06993646867695841,0.34531973324602855,1.5010941176880044,1.1201737324114087,1.4286218585361734,0.21264018648050081,1.6057145187664532,1.8637690256201755,1.2894757322292032,1.5034232367406621,1
1.5211113995716465,0.06347611117075284,0.6892090557302925,-0.13077440588261754,0.04078280624261383,0.2673766397666808,1.1806949620142726,0.7072317537430624,0.49041769921202444,0.08643534629533504,1.408527089475178,1.591299927100139,1.1878006969547559,1.1461382396714557,1
1.2883877625784939,0.028083568391469894,0.45576576923520484,-0.13077440588261754,0.12824379354564755,0.6066583407944788,1.2949319868784577,0.40437183700837714,0.10416162903153031,-0.4424464158814469,0.9157507067239036,1.0217235668960545,0.7507116486659828,0.8944381875453915,1
1.3158769077738026,-0.11279936888531916,0.45576576923520484,-0.323039513682843,-0.07697512437446319,0.711091897417161,1.6380892998493168,0.569226437074927,0.5178537153390128,-0.4424464158814469,0.9549575640098691,1.219795074685449,0.7799645219432871,1.1195483880109651,1
1.5211113995716465,-0.1832408375237215,0.6655461884832491,-0.46747281417665465,-0.04724982150026926,0.16243365116050867,1.4323734074181556,0.6245359608757969,0.7109817504292599,0.061390806025113494,1.36893585123542,1.7400951085614234,1.1003260856013213,1.3578244373569612,1
1.5486005447669309,-0.11279936888531916,0.7124168678380006,-0.17860621318903133,-0.04724982150026926,-0.04643346208485552,1.3176901441756257,0.5418401680085314,0.46298168308498705,0.08643534629533504,1.3297289939494195,1.641059354666726,1.0710732123240427,1.2122256379732839,1
1.3158769077738026,-0.09527490595577509,0.5258442606976647,-0.2029910561295234,-0.3696550295975557,0.31933870208627685,1.5238522749851726,0.514453898942087,0.2144436546401725,-0.2661524951558827,1.1325415646581791,1.219795074685449,0.8234178191415781,1.000281286388156,1
1.2472874872379622,-0.11279936888531916,0.43255795712753803,-0.6114371753831386,-0.4285339949061462,0.5806773096347271,1.5466104322823,0.6519222299421925,0.49041769921202444,-0.19052780492818902,1.3297289939494195,1.2695545022520363,0.9253768628944518,1.1327142368913876,1
1.5075002694263993,-0.006965357467633877,0.6423383763755408,-0.2752077063764292,-0.13528244924315236,0.5806773096347271,1.477889722012451,0.9273958776104333,1.2075198462183963,0.2627292670209439,1.5069286136439368,1.7898545361280105,1.216769561753608,1.4636675361997258,1
1.7127347612242674,0.2043590484475575,0.9226523422253801,0.25422474900511854,0.12824379354564755,0.6066583407944788,1.4551315647153236,1.147560001477853,1.3178018718269895,0.4640677280167743,1.5069286136439368,2.0869617978121022,1.3187286055064815,1.5165890856211082,1
1.5075002694263993,0.08100057410031254,0.8289109835158769,-0.010257009042012767,-0.018096159065924683,0.5806773096347271,1.4323734074181556,1.0374779395441431,0.6561097181752341,-0.06481403416005227,1.0733468977754208,1.7154569453973683,1.0858416532018822,1.1990597890928378,1
1.1653538214617134,-0.39490886035909206,0.6191305642678326,-0.4191720675829131,-0.3993803324718016,0.4237722587089126,1.3408945398511385,0.7072317537430624,0.26985364799474,-0.719409567104971,0.20618346603835358,1.24443323784946,0.6487526049131093,0.9210280392058819,1
1.0695421406354029,-0.518267334706337,0.5258442606976647,-0.2991236100296361,-0.45768765734043876,0.18892411430379674,1.2262112766086088,0.3764485822740005,0.3247256802487658,-0.719409567104971,-0.32618415495271397,1.1207593207907516,0.4158656526085099,0.8283507892435633,1
1.0148307351496242,-0.3241237748005106,0.26919316209491023,-0.058557755635711715,-0.13528244924315236,0.24088617662339276,1.2721738295812897,0.5971496918093525,0.6835457343022225,-0.29119703542605957,-0.32618415495271397,0.9970854037319995,0.5178246963613836,0.6959178387403318,1
0.9051410392732764,-0.4653503289974944,0.012542063492114437,-0.3952561639297488,-0.10612878680880777,0.685110866257363,1.4323734074181556,1.1201737324114087,1.097237820609754,0.010810656067641386,-0.30658072630971367,0.9473259761654123,0.5467935611602613,0.5900747398975672,1
0.8915299091280292,-0.7471162035510726,-0.03432861586263715,-0.876387872717555,-0.3405013671632631,0.815525454039843,1.477889722012451,0.9000096085440377,1.1246738367367914,-0.08985857443027381,-0.40498225047843756,1.0709998932241644,0.357359906053953,0.6298304404385036,1
0.8504296337874976,-0.7120672776919688,-0.03432861586263715,-0.828087126123856,-0.3993803324718016,0.6326393719542769,1.5698148279578534,0.8447000847431678,1.1800838300913588,-0.08985857443027381,-0.4445734887182306,1.0217235668960545,0.31390660885563626,0.7090836876207541,1
0.727395692670717,-0.518267334706337,-0.03432861586263715,-0.6114371753831386,-0.19416141455169086,0.7375823605604953,1.7755307203890147,1.368261111013205,1.1246738367367914,0.08643534629533504,-0.503768155600989,1.0961211576266967,0.4740873906846662,0.6693279870798178,1
0.6451951419896538,-0.6237577292038432,-0.011120803754928948,-0.7319545722237433,-0.31134770472891854,0.711091897417161,1.7755307203890147,1.2302557943451184,0.5452897314660502,-0.13994765497067224,-0.503768155600989,1.2695545022520363,0.5467935611602613,0.5900747398975672,1
0.6862954173301854,-0.8529502149687578,0.012542063492114437,-0.828087126123856,-0.72178554056914,0.2673766397666808,1.5238522749851726,0.569226437074927,0.2972896641217774,-0.6688294171474989,-0.5625784415299547,1.1207593207907516,0.4740873906846662,0.5766507371174991,1
0.6999065474754083,-0.7646406664806322,0.012542063492114437,-0.7319545722237433,-0.72178554056914,0.08449055768111463,1.3636526971483067,0.7620042918759024,0.7109817504292599,-0.6187403366070557,-0.8189605377039884,0.897566548598825,0.37212834693179253,0.5766507371174991,1
0.7135176776206554,-0.6941991978422298,0.12903617916999063,-0.6836538256300444,-0.3993803324718016,0.29335767092647885,1.3864108544454747,1.3403378562788284,1.1526478139643215,-0.19052780492818902,-0.7797536804179879,1.0709998932241644,0.4448345174073877,0.6032405887780131,1
0.7135176776206554,-0.8175576721894748,0.12903617916999063,-0.7080386685705791,-0.5457202850833218,0.2673766397666808,1.3176901441756257,1.2302557943451184,1.0143918111281491,-0.3417771853835763,-0.7205590135352296,1.0463617300601094,0.4740873906846662,0.6164064376584355,1
0.6862954173301854,-0.8000332092599152,-0.011120803754928948,-0.7797863795301571,-0.8098181683120231,-0.04643346208485552,1.066011698771743,0.7072317537430624,0.24187967076716096,-0.7444541073751925,-0.897758633229747,0.6994950408094306,0.25540086230107933,0.5237291876961404,1
0.7682290831064342,-0.5887088033447394,0.05895768770753085,-0.6114371753831386,-0.5457202850833218,-0.12488598754773961,0.9290165166104102,0.32167604414111167,-0.06153038993167938,-0.7950342573326646,-0.8585517759437465,0.8236520591066601,0.2701693031789189,0.5900747398975672,1
0.9598524447590552,-0.48287479192703847,0.19911467063245045,-0.2508228634359372,-0.3405013671632631,-0.09839552440445157,1.0204953841774271,0.21159398220740178,0.26985364799474,-0.4424464158814469,-0.6021696797697129,1.170518748357339,0.4740873906846662,0.6693279870798178,1
0.8915299091280292,-0.6237577292038432,0.08216549981519766,-0.3952561639297488,-0.6045992503919124,-0.15086701870753763,0.8830539636377293,0.18367072747302518,0.35269965747634485,-0.29119703542605957,-0.7005712039384717,1.0463617300601094,0.4158656526085099,0.4708076382747581,1
0.617705996794345,-0.7471162035510726,-0.08119929521738874,-0.7797863795301571,-0.8389718307463158,-0.15086701870753763,0.8143332533678803,0.3490623132075561,0.2972896641217774,-0.5180711061091405,-0.9765567287555056,0.6994950408094306,0.24091642990164042,0.31204299001061125,1
0.590483736503875,-0.6591502719831261,-0.05753642797034536,-0.6358220183236732,-0.72178554056914,-0.15086701870753763,1.1119742517444238,0.5971496918093525,0.2972896641217774,-0.7950342573326646,-1.0161479669952638,0.5758211237507223,0.2264319975022015,0.37813038831243945,1
0.754617952961187,-0.5533162605654408,0.012542063492114437,-0.3952561639297488,-0.6337529128262569,-0.2553005753302197,1.3408945398511385,0.6245359608757969,-0.006120396577111905,-0.9207480281008014,-1.035751395638264,0.6250974500787883,0.16821025942607104,0.4047202399729299,1
0.6862954173301854,-0.6062332662742834,0.012542063492114437,-0.6114371753831386,-0.8389718307463158,-0.12488598754773961,1.5238522749851726,0.6519222299421925,0.021315619549925464,-1.046952868285967,-1.2725300631692973,0.6250974500787883,0.0662512156731974,0.28545313835012076,1
0.4946720556775645,-0.782508746330371,-0.03432861586263715,-0.7797863795301571,-0.8681254931806603,0.2673766397666808,1.7982888776861827,0.9000096085440377,0.6006997248206177,-1.1220864890965871,-1.5877224452722967,0.6250974500787883,0.022513909996480026,0.20594173726824802,1
0.4260826351417483,-0.8000332092599152,-0.08119929521738874,-0.6597379219768374,-0.6920602376948941,0.16243365116050867,1.6840518528220385,1.312951587212384,1.2075198462183963,-0.543115646379362,-1.46933311150678,0.7241332039734856,0.0662512156731974,0.3252088388910571,1
0.5493834611633434,-0.6591502719831261,-0.011120803754928948,-0.6358220183236732,-0.5457202850833218,-0.09839552440445157,1.4096152501209875,1.5610389658141803,1.3732118651816059,0.010810656067641386,-1.035751395638264,0.9473259761654123,0.25540086230107933,0.5503190393566308,1
0.590483736503875,-0.7471162035510726,0.08216549981519766,-0.6358220183236732,-0.5165666226490293,0.2673766397666808,1.5466104322823,1.202869525278674,0.7384177665562973,-0.2661524951558827,-0.9373498714695051,1.0709998932241644,0.2991381679777967,0.44447594051386624,1
0.5082831858228116,-0.9763086893160028,0.19911467063245045,-0.6358220183236732,-0.5165666226490293,0.476243753012045,1.7068100101191659,0.569226437074927,0.24187967076716096,-0.8200787976028862,-1.2725300631692973,0.8236520591066601,0.0662512156731974,0.19277588838780213,1
0.4946720556775645,-0.9058672206776005,0.26919316209491023,-0.5396894644235605,-0.45768765734043876,0.16243365116050867,1.5466104322823,0.43175810607482157,0.3801356736033822,-0.9713281780582734,-1.4497296828637798,0.6994950408094306,-0.06496070135695471,0.2986189872305667,1
0.48106092553231733,-0.6591502719831261,0.10582836706228244,-0.34695541733600727,-0.25246873942038,0.24088617662339276,1.4096152501209875,0.40437183700837714,0.2972896641217774,-0.8451233378731077,-1.213335396286539,0.87292838543477,0.10998852134991477,0.4708076382747581,1
0.4399606501917857,-0.6412821921333872,-0.08119929521738874,-0.37134026027654193,-0.04724982150026926,0.4237722587089126,1.3176901441756257,0.459144375141266,0.5178537153390128,-0.6437848768772773,-1.0557392052350218,0.9473259761654123,0.31390660885563626,0.4047202399729299,1
0.3713712296559695,-0.8175576721894748,-0.12761491943280515,-0.6597379219768374,-0.16443611167749692,0.08449055768111463,1.1806949620142726,0.8173138156767722,0.8212637760379021,-0.4169108061941963,-1.075342633878022,0.848290222270715,0.31390660885563626,0.31204299001061125,1
0.3030486940249436,-0.8000332092599152,-0.15082273154051334,-0.7319545722237433,-0.5165666226490293,-0.2033385130106237,1.066011698771743,0.7620042918759024,0.435007705857408,-0.6187403366070557,-1.1737441580467458,0.8236520591066601,0.24091642990164042,0.27228728946967484,1
0.26194841868441193,-0.8175576721894748,-0.05753642797034536,-0.7319545722237433,-0.72178554056914,-0.15086701870753763,1.0204953841774271,0.48706762987564256,0.1595716223860978,-0.996372718328495,-1.3513281586950558,0.7738926315400728,0.16821025942607104,0.19277588838780213,1
0.3713712296559695,-0.9763086893160028,-0.011120803754928948,-0.8520030297770629,-0.6045992503919124,-0.15086701870753763,1.1119742517444238,0.569226437074927,0.49041769921202444,-0.996372718328495,-1.3905350159810215,0.6250974500787883,0.0662512156731974,0.19277588838780213,1
0.4535717803370328,-0.9058672206776005,-0.36105820592789273,-0.9481355836771757,-0.5748739475176664,0.18892411430379674,1.2721738295812897,0.9000096085440377,0.8212637760379021,-0.5681601866495837,-1.2329388249295044,0.526061696184091,0.0952200804720494,0.2325315889287385,1
0.3302709543154379,-0.7646406664806322,-0.827944778918068,-1.1887014380710788,-0.5457202850833218,0.5806773096347271,1.5010941176880044,1.2302557943451184,0.9595197788740745,-0.2661524951558827,-1.1541407294037807,0.4270259422893939,0.28465373557835777,0.2591214405892524,1
0.3713712296559695,-0.8879991408278616,-0.7342034202085234,-1.2848339919711915,-0.31134770472891854,0.34531973324602855,1.5466104322823,1.312951587212384,1.1526478139643215,-0.29119703542605957,-1.1345373007607804,0.45166410545344887,0.37212834693179253,0.3517986905515476,1
0.5629945913085904,-0.9409161465367198,-0.31418752657314114,-1.1408696307646862,-0.6045992503919124,-0.2033385130106237,1.0892160944472558,0.8720863538096123,0.9315458016465443,-0.3668217256537532,-1.1145494911639875,0.550699859348146,0.28465373557835777,0.3517986905515476,1
0.48106092553231733,-0.9763086893160028,-0.43113669739035254,-1.3814354851586106,-1.1613770388436542,-0.5686012451982198,0.6086173609366986,0.3490623132075561,0.5732637086936293,-0.5932047269198052,-1.4105228255778142,0.3526283515587516,0.10998852134991477,0.16644419062693377,1
0.17974786800334863,-1.0642746208839493,-0.6877877959931483,-1.5976164966120217,-0.8972791556150048,-0.5686012451982198,0.6086173609366986,0.29428977507466725,0.5178537153390128,-0.5932047269198052,-1.6273136835120547,0.12991868060534614,-0.03570782807967626,0.020845391243232845,1
0.09781420222709981,-0.8704746778983175,-1.0145173860583625,-1.4292672924650032,-0.3405013671632631,-0.2812816064899714,0.8602958063405612,0.514453898942087,0.6281357409476551,-0.3668217256537532,-1.4893209211035379,0.10479741620281388,0.00802947759704111,0.0074213884631882995,1
0.05671392688656816,-0.8175576721894748,-1.2943762967688666,-1.5493157500183015,-0.5165666226490293,-0.12488598754773961,0.8143332533678803,0.6798454846766179,0.6561097181752341,-0.3668217256537532,-1.3709315873380212,0.12991868060534614,0.13895738614876676,0.07376694066461513,1
-0.0390977539397423,-1.1876330952311942,-1.0377251981660707,-1.7898816044122259,-0.6629065752605495,-0.12488598754773961,0.7688169387735645,0.8173138156767722,0.5178537153390128,-0.4674909561516684,-1.2329388249295044,0.25359259766409836,0.15344181854820568,0.13985433896641983,1
0.12503646251756984,-1.2934671066488794,-0.7109956081008152,-1.525399846365116,-0.4285339949061462,0.006038032218230541,0.9517746739075782,0.9000096085440377,0.49041769921202444,-0.4674909561516684,-1.075342633878022,0.5758211237507223,0.0662512156731974,0.16644419062693377,1
0.34414896936547523,-0.9938331522455625,-0.4543445094980607,-1.3570506422180972,-0.5457202850833218,0.03201906337802856,0.9290165166104102,0.734618022809458,0.49041769921202444,-0.4674909561516684,-1.1145494911639875,0.848290222270715,0.0952200804720494,0.3252088388910571,1
0.31665982417019073,-0.8879991408278616,-0.17448559878755673,-1.4292672924650032,-0.6045992503919124,-0.2033385130106237,0.905812120934877,0.8447000847431678,0.9315458016465443,-0.3162415756962811,-0.9569533001125053,1.0961211576266967,0.2991381679777967,0.4708076382747581,1
0.17974786800334863,-0.9587842263864588,-0.29097971446543297,-1.4292672924650032,-0.4874129602146847,0.058000094537826584,1.2262112766086088,1.5610389658141803,1.6212119325258787,0.13701549625280715,-0.5825662511267475,1.219795074685449,0.4740873906846662,0.33837468777150304,1
0.11142533237234696,-0.8704746778983175,-0.5012151888528124,-1.3814354851586106,-0.5165666226490293,0.29335767092647885,1.5925729852550214,1.94605768974815,1.566339900271853,0.3633984975188591,-0.6021696797697129,1.170518748357339,0.45931894980682664,0.21936574004831605,1
0.16613673785810149,-0.7646406664806322,-0.17448559878755673,-1.3814354851586106,-0.5748739475176664,0.03201906337802856,1.5238522749851726,1.6158115039470693,1.290365855700001,0.3633984975188591,-0.8189605377039884,1.0709998932241644,0.4303500850079488,0.33837468777150304,1
0.22084814334388028,-0.9938331522455625,0.012542063492114437,-1.5737005929588148,-0.5457202850833218,-0.0204524309250575,1.4323734074181556,1.3956473800796494,0.9869557950011119,0.08643534629533504,-0.8385639663469886,1.0217235668960545,0.4158656526085099,0.44447594051386624,1
0.24833728853918907,-1.1701086323016345,-0.26777190235772474,-1.6698331468589276,-0.45768765734043876,0.21490514546359474,1.5698148279578534,1.4230336491460938,0.7109817504292599,-0.2661524951558827,-0.8585517759437465,1.0463617300601094,0.38661277933123145,0.44447594051386624,1
0.23445927348912743,-1.0467501579544052,-0.5012151888528124,-1.4531831961181887,-0.3696550295975557,0.006038032218230541,1.3636526971483067,1.0927874633449641,0.8492377532654323,-0.16548326465796748,-0.9177464428265049,1.0463617300601094,0.37212834693179253,0.31204299001061125,1
0.13891447756763145,-0.9409161465367198,-0.6877877959931483,-1.4053513888117963,-0.3405013671632631,-0.33375310079310383,1.1119742517444238,0.7072317537430624,0.9315458016465443,-0.03927842447275705,-1.0161479669952638,0.6748568776453756,0.357359906053953,0.1796100395073797,1
0.12503646251756984,-0.9587842263864588,-0.7342034202085234,-1.5014839427119089,-0.28219404229457395,-0.22931954417042172,1.2034531193114408,0.6245359608757969,0.3247256802487658,-0.2155723451983659,-1.2525422535725046,0.2782307608281094,0.3428754736545141,0.19277588838780213,1
0.20723701319865742,-1.0292256950248455,-0.6409171166383554,-1.4531831961181887,-0.3405013671632631,-0.12488598754773961,1.2494156722841216,0.5971496918093525,-0.30953045727600115,-0.6943650268347494,-1.508924349746538,0.4023877791253828,0.12447295374935369,0.12668849008599742,1
0.09781420222709981,-1.0996671636632478,-0.8042819116709832,-1.4292672924650032,-0.5748739475176664,-0.2812816064899714,1.1119742517444238,0.48706762987564256,-0.14437639941328423,-1.1220864890965871,-1.7061117790378135,0.4023877791253828,-0.1958886099087062,-0.13817741092051264,1
0.015613651546036502,-0.8879991408278616,-0.8042819116709832,-1.4531831961181887,-0.3696550295975557,-0.33375310079310383,1.1806949620142726,0.6245359608757969,0.35269965747634485,-0.9457925683709782,-1.5877224452722967,0.4270259422893939,-0.05019226047911518,0.020845391243232845,1
0.23445927348912743,-0.6062332662742834,-0.4543445094980607,-1.4053513888117963,-0.19416141455169086,-0.0204524309250575,1.5238522749851726,0.9547821466768778,0.7109817504292599,-0.2155723451983659,-1.075342633878022,0.7492544683760178,0.40109721173067037,0.3912962371928853,1
0.24833728853918907,-0.8175576721894748,-0.12761491943280515,-1.4292672924650032,-0.6045992503919124,0.21490514546359474,1.7068100101191659,1.2855653181459394,0.9041097855195069,0.03634626575493661,-0.9569533001125053,0.897566548598825,0.4448345174073877,0.31204299001061125,1
0.0703250570318153,-1.0821427007336881,-0.03432861586263715,-1.4531831961181887,-0.8098181683120231,0.08449055768111463,1.5010941176880044,1.368261111013205,0.8766737693924695,-0.3918662659239748,-1.2525422535725046,0.7241332039734856,0.2264319975022015,0.07376694066461513,1
0.1525256077128786,-0.8879991408278616,-0.10440710732509695,-1.4053513888117963,-0.6920602376948941,-0.07241449324465354,1.3176901441756257,1.1201737324114087,0.6835457343022225,-0.3918662659239748,-1.1541407294037807,0.6502187144813645,0.24091642990164042,0.20594173726824802,1
0.3302709543154379,-0.6591502719831261,-0.08119929521738874,-1.4775680390587234,-0.5748739475176664,-0.0204524309250575,1.3408945398511385,1.1201737324114087,0.9315458016465443,0.13701549625280715,-0.7205590135352296,0.897566548598825,0.4303500850079488,0.5634848882370768,1
0.2894375638797207,-0.6591502719831261,0.03574987559982264,-1.4531831961181887,-0.5457202850833218,0.11047158884091264,1.3176901441756257,1.5057294420133593,1.3457758490545686,0.41397864747633123,-0.6613643466524712,1.1951569115213938,0.5760464344375399,0.5766507371174991,1
0.043102796741321,-0.7646406664806322,-0.26777190235772474,-1.4531831961181887,-0.6337529128262569,0.08449055768111463,1.1119742517444238,1.4504199182125384,1.097237820609754,0.03634626575493661,-0.8781552045867468,0.9970854037319995,0.4448345174073877,0.21936574004831605,1
-0.12129830462080561,-0.9409161465367198,-0.5945014924229803,-1.71766495416532,-0.6629065752605495,-0.0204524309250575,1.066011698771743,1.0100916704776988,0.8492377532654323,-0.2661524951558827,-1.0161479669952638,0.5758211237507223,0.13895738614876676,0.020845391243232845,1
-0.23072111559236322,-1.1701086323016345,-0.7578662874556081,-1.9343149049060375,-0.5457202850833218,-0.22931954417042172,1.1806949620142726,0.7620042918759024,0.7938277599108647,-0.19052780492818902,-1.1541407294037807,0.50142353302008,-0.05019226047911518,-0.11158755926002217,1
-0.40873334709973697,-1.2405501009400368,-1.1546743689832821,-2.054363362459336,-0.7509392030034326,-0.5426202140384216,1.066011698771743,0.514453898942087,0.048751635676962835,-0.5180711061091405,-1.2725300631692973,0.4023877791253828,-0.05019226047911518,-0.23085466088283127,1
-0.435955607390207,-1.2934671066488794,-1.341246976123618,-2.2227125666063543,-1.1613770388436542,-0.7779777904270739,0.7228543858008634,0.32167604414111167,-0.5306324695937783,-1.1977111793242807,-1.2921334918122975,0.22895443450004338,0.00802947759704111,-0.05866600983863989,1
-0.24433224573758608,-1.3285160325079832,-0.9212310824881945,-2.174880759299962,-1.0150370862320819,-0.6470537706611038,0.7228543858008634,0.3764485822740005,0.10416162903153031,-1.1726666390541038,-1.2525422535725046,0.37774961596132783,0.03699834239589311,0.13985433896641983,1
-0.18962084025183157,-1.1525841693720904,-0.5945014924229803,-1.9103990012528307,-0.7509392030034326,-0.4122056262559879,1.1119742517444238,0.48706762987564256,0.40757168973037067,-0.6688294171474989,-1.2921334918122975,0.4023877791253828,-0.03570782807967626,-0.05866600983863989,1
-0.3129216662734265,-1.0642746208839493,-0.7578662874556081,-1.8860141583123173,-0.8972791556150048,-0.3862245950961899,1.2721738295812897,0.5418401680085314,0.048751635676962835,-0.8451233378731077,-1.5285277783895383,0.22895443450004338,-0.21065705078654573,-0.20426480922234083,1
-0.28543252107811773,-1.1525841693720904,-0.8511525910257347,-1.9103990012528307,-0.8972791556150048,-0.22931954417042172,1.1347324090415918,0.6245359608757969,0.46298168308498705,-0.9457925683709782,-1.4497296828637798,0.3526283515587516,-0.123182439433111,0.07376694066461513,1
-0.0390977539397423,-1.0292256950248455,-0.5945014924229803,-1.6459172432057207,-0.6337529128262569,-0.07241449324465354,1.1806949620142726,0.7072317537430624,1.1246738367367914,-0.3417771853835763,-1.0161479669952638,0.6748568776453756,0.19717912422492306,0.2456974378091844,1
0.08393618717703819,-0.8000332092599152,-0.33785039382018456,-1.525399846365116,-0.6337529128262569,-0.12488598754773961,1.3408945398511385,0.9547821466768778,0.9869557950011119,0.03634626575493661,-0.7797536804179879,0.87292838543477,0.38661277933123145,0.19277588838780213,1
0.015613651546036502,-0.8175576721894748,-0.22090122300297316,-1.4775680390587234,-0.7509392030034326,-0.15086701870753763,1.2949319868784577,1.0374779395441431,0.7663917437838274,-0.03927842447275705,-0.7993571090609881,1.0217235668960545,0.4448345174073877,0.2456974378091844,1
